Data from 03 0.5 mM K2Cr2O7 0.2 mM BQDS 1 M H2SO4 5 min_Absorbance_0039.txt Node
Date: Thu Dec 09 19:01:44 EST 2021
User: kwabilab-user
Spectrometer: HDX00518
Trigger mode: 0
Integration Time (sec): 5.000000E-2
Scans to average: 50
Nonlinearity correction enabled: false
Boxcar width: 0
Storing dark spectrum: false
XAxis mode: Wavelengths
Number of Pixels in Spectrum: 2068
>>>>>Begin Spectral Data<<<<<
195.27	0.1058
195.642	-0.0079
196.014	0.119
196.386	0.1679
196.758	0.0036
197.129	0.0179
197.501	0.0447
197.872	0.0794
198.244	0.1313
198.615	0.1068
198.986	0.1113
199.357	0.0987
199.728	0.107
200.099	0.1123
200.47	0.1192
200.841	0.1192
201.212	0.1115
201.582	0.1136
201.953	0.0965
202.323	0.1116
202.694	0.1135
203.064	0.0961
203.434	0.1215
203.804	0.1188
204.174	0.1159
204.544	0.116
204.914	0.1087
205.284	0.1228
205.653	0.1262
206.023	0.122
206.393	0.1549
206.762	0.1179
207.131	0.1288
207.501	0.1167
207.87	0.1338
208.239	0.1058
208.608	0.1303
208.977	0.1068
209.346	0.1346
209.715	0.1291
210.083	0.1388
210.452	0.1306
210.82	0.1221
211.189	0.1381
211.557	0.1366
211.925	0.1333
212.294	0.1523
212.662	0.1436
213.03	0.1703
213.398	0.1643
213.766	0.1846
214.133	0.1459
214.501	0.1822
214.869	0.187
215.236	0.1828
215.604	0.197
215.971	0.2119
216.338	0.2305
216.705	0.2263
217.072	0.2633
217.439	0.2567
217.806	0.2994
218.173	0.2979
218.54	0.3383
218.907	0.3468
219.273	0.3884
219.64	0.4183
220.006	0.4645
220.373	0.4738
220.739	0.526
221.105	0.5723
221.471	0.584
221.837	0.6379
222.203	0.6936
222.569	0.6987
222.935	0.7406
223.3	0.7621
223.666	0.8322
224.031	0.838
224.397	0.8714
224.762	0.8888
225.127	0.9346
225.493	0.9667
225.858	0.9898
226.223	1.0058
226.588	1.0266
226.952	1.0275
227.317	1.0611
227.682	1.0604
228.046	1.0578
228.411	1.0801
228.775	1.0932
229.14	1.0913
229.504	1.0939
229.868	1.0996
230.232	1.0884
230.596	1.0855
230.96	1.0982
231.324	1.0883
231.688	1.0816
232.052	1.0868
232.415	1.0835
232.779	1.0742
233.142	1.0713
233.505	1.0581
233.869	1.0553
234.232	1.0471
234.595	1.0354
234.958	1.0327
235.321	1.0248
235.684	1.0118
236.047	1.0112
236.409	0.9957
236.772	0.9905
237.134	0.9889
237.497	0.9759
237.859	0.9696
238.222	0.9634
238.584	0.9558
238.946	0.9482
239.308	0.9402
239.67	0.932
240.032	0.9245
240.393	0.9174
240.755	0.9143
241.117	0.9094
241.478	0.9028
241.84	0.9004
242.201	0.8917
242.562	0.8812
242.924	0.8777
243.285	0.872
243.646	0.8752
244.007	0.8625
244.368	0.862
244.728	0.8543
245.089	0.8584
245.45	0.8492
245.81	0.8474
246.171	0.8437
246.531	0.843
246.891	0.8384
247.252	0.8349
247.612	0.8363
247.972	0.829
248.332	0.8307
248.692	0.8262
249.051	0.8252
249.411	0.8226
249.771	0.8192
250.13	0.817
250.49	0.8195
250.849	0.82
251.208	0.8161
251.568	0.8149
251.927	0.8155
252.286	0.8148
252.645	0.8112
253.004	0.8098
253.363	0.8097
253.721	0.807
254.08	0.8099
254.439	0.8085
254.797	0.8081
255.155	0.8048
255.514	0.8025
255.872	0.8066
256.23	0.8055
256.588	0.8063
256.946	0.8059
257.304	0.8018
257.662	0.8049
258.02	0.8035
258.377	0.8008
258.735	0.801
259.093	0.7973
259.45	0.7958
259.807	0.7975
260.165	0.7964
260.522	0.7981
260.879	0.7958
261.236	0.7946
261.593	0.793
261.95	0.7949
262.306	0.7942
262.663	0.7881
263.02	0.7887
263.376	0.7866
263.733	0.7858
264.089	0.7848
264.445	0.7813
264.802	0.7808
265.158	0.7793
265.514	0.777
265.87	0.776
266.226	0.7741
266.581	0.7727
266.937	0.7694
267.293	0.7666
267.648	0.7631
268.004	0.7596
268.359	0.7602
268.714	0.7565
269.07	0.7548
269.425	0.7503
269.78	0.7472
270.135	0.7467
270.49	0.7437
270.844	0.7421
271.199	0.7369
271.554	0.7347
271.908	0.732
272.263	0.7298
272.617	0.7245
272.972	0.7219
273.326	0.7179
273.68	0.7137
274.034	0.7112
274.388	0.7081
274.742	0.7035
275.096	0.7011
275.45	0.6943
275.803	0.6898
276.157	0.6892
276.51	0.6813
276.864	0.6791
277.217	0.6727
277.571	0.6684
277.924	0.6621
278.277	0.6603
278.63	0.6559
278.983	0.6488
279.336	0.6447
279.688	0.6407
280.041	0.6327
280.394	0.6301
280.746	0.6238
281.099	0.6199
281.451	0.614
281.803	0.6065
282.156	0.6033
282.508	0.5964
282.86	0.5916
283.212	0.5855
283.564	0.5812
283.916	0.5758
284.267	0.5697
284.619	0.5635
284.971	0.5594
285.322	0.5527
285.673	0.5467
286.025	0.5415
286.376	0.5367
286.727	0.5296
287.078	0.5213
287.429	0.5164
287.78	0.5115
288.131	0.5061
288.482	0.4985
288.833	0.4913
289.183	0.4871
289.534	0.4812
289.884	0.4746
290.235	0.4672
290.585	0.4636
290.935	0.4564
291.285	0.4499
291.635	0.4446
291.985	0.4382
292.335	0.433
292.685	0.4265
293.035	0.42
293.384	0.4136
293.734	0.4075
294.083	0.4021
294.433	0.397
294.782	0.3903
295.131	0.3847
295.48	0.3785
295.829	0.3723
296.179	0.3672
296.527	0.3615
296.876	0.3558
297.225	0.3497
297.574	0.3446
297.922	0.3389
298.271	0.3345
298.619	0.3289
298.968	0.3234
299.316	0.3188
299.664	0.314
300.012	0.3088
300.36	0.3047
300.708	0.2992
301.056	0.2949
301.404	0.2899
301.752	0.2864
302.099	0.2826
302.447	0.2778
302.794	0.2743
303.142	0.2698
303.489	0.2656
303.836	0.2622
304.183	0.2587
304.531	0.2556
304.878	0.2521
305.224	0.2485
305.571	0.2457
305.918	0.2426
306.265	0.2396
306.611	0.2372
306.958	0.2356
307.304	0.2324
307.651	0.2297
307.997	0.2281
308.343	0.2259
308.689	0.2235
309.035	0.2219
309.381	0.2204
309.727	0.2188
310.073	0.2166
310.419	0.2159
310.764	0.2142
311.11	0.213
311.455	0.2125
311.801	0.2118
312.146	0.2103
312.491	0.2096
312.837	0.209
313.182	0.2085
313.527	0.2079
313.872	0.2082
314.216	0.2077
314.561	0.2072
314.906	0.2077
315.251	0.2075
315.595	0.2087
315.94	0.2079
316.284	0.209
316.628	0.2088
316.972	0.2096
317.317	0.2099
317.661	0.2107
318.005	0.2108
318.348	0.2116
318.692	0.2124
319.036	0.213
319.38	0.2146
319.723	0.2154
320.067	0.2165
320.41	0.2183
320.754	0.2191
321.097	0.2211
321.44	0.2219
321.783	0.2236
322.126	0.2255
322.469	0.2269
322.812	0.2285
323.155	0.2304
323.498	0.2325
323.84	0.2338
324.183	0.2355
324.525	0.238
324.868	0.2388
325.21	0.2412
325.552	0.2433
325.894	0.2454
326.236	0.247
326.578	0.2498
326.92	0.2518
327.262	0.2537
327.604	0.2556
327.946	0.258
328.287	0.2594
328.629	0.2619
328.97	0.2643
329.312	0.2668
329.653	0.2694
329.994	0.2705
330.335	0.2735
330.676	0.2763
331.017	0.2789
331.358	0.2812
331.699	0.2837
332.04	0.2856
332.38	0.2885
332.721	0.2903
333.061	0.2926
333.402	0.2948
333.742	0.2973
334.083	0.2998
334.423	0.3015
334.763	0.3029
335.103	0.3059
335.443	0.3084
335.783	0.3096
336.123	0.3111
336.462	0.3131
336.802	0.3149
337.141	0.3165
337.481	0.319
337.82	0.3201
338.16	0.3223
338.499	0.3244
338.838	0.3272
339.177	0.3293
339.516	0.3306
339.855	0.3322
340.194	0.3341
340.533	0.3353
340.872	0.3381
341.21	0.339
341.549	0.3404
341.887	0.3419
342.226	0.3431
342.564	0.3441
342.902	0.3443
343.24	0.3455
343.578	0.3469
343.916	0.3471
344.254	0.3471
344.592	0.3477
344.93	0.3488
345.268	0.3496
345.605	0.3493
345.943	0.3495
346.28	0.3507
346.618	0.3513
346.955	0.3509
347.292	0.3517
347.629	0.3524
347.966	0.3531
348.303	0.3527
348.64	0.3532
348.977	0.3536
349.314	0.3531
349.65	0.3531
349.987	0.3527
350.324	0.3518
350.66	0.3524
350.996	0.3525
351.333	0.351
351.669	0.3508
352.005	0.3496
352.341	0.3491
352.677	0.3479
353.013	0.3471
353.349	0.3465
353.685	0.3443
354.02	0.3424
354.356	0.3413
354.691	0.3404
355.027	0.3388
355.362	0.3384
355.697	0.3365
356.033	0.3351
356.368	0.3329
356.703	0.332
357.038	0.3307
357.373	0.3298
357.707	0.3286
358.042	0.3274
358.377	0.326
358.711	0.324
359.046	0.3222
359.38	0.3213
359.715	0.3197
360.049	0.3183
360.383	0.316
360.717	0.3142
361.051	0.3122
361.385	0.3101
361.719	0.308
362.053	0.3052
362.387	0.3026
362.72	0.3009
363.054	0.2983
363.387	0.2959
363.721	0.2926
364.054	0.291
364.387	0.2875
364.721	0.2852
365.054	0.2828
365.387	0.2797
365.72	0.277
366.053	0.2761
366.385	0.2734
366.718	0.2712
367.051	0.2695
367.383	0.2666
367.716	0.265
368.048	0.263
368.381	0.2609
368.713	0.2587
369.045	0.2563
369.377	0.2544
369.709	0.2526
370.041	0.2504
370.373	0.2489
370.705	0.246
371.037	0.2439
371.368	0.2415
371.7	0.2399
372.031	0.2363
372.363	0.2346
372.694	0.2321
373.025	0.229
373.356	0.2258
373.688	0.2225
374.019	0.2196
374.35	0.2171
374.68	0.2145
375.011	0.2118
375.342	0.2086
375.673	0.2055
376.003	0.2038
376.334	0.2007
376.664	0.1978
376.995	0.1953
377.325	0.1929
377.655	0.191
377.985	0.1887
378.315	0.1863
378.645	0.1841
378.975	0.1827
379.305	0.18
379.635	0.1781
379.964	0.177
380.294	0.1753
380.623	0.1733
380.953	0.1706
381.282	0.1692
381.611	0.1673
381.941	0.166
382.27	0.1632
382.599	0.161
382.928	0.1586
383.257	0.1574
383.585	0.1549
383.914	0.1528
384.243	0.1506
384.571	0.1478
384.9	0.1456
385.228	0.1432
385.557	0.1412
385.885	0.1387
386.213	0.1367
386.541	0.134
386.869	0.1317
387.197	0.1296
387.525	0.1262
387.853	0.1249
388.181	0.1229
388.508	0.1209
388.836	0.1182
389.164	0.1168
389.491	0.1153
389.818	0.1146
390.146	0.1116
390.473	0.1095
390.8	0.1084
391.127	0.1064
391.454	0.1051
391.781	0.1037
392.108	0.1015
392.435	0.1008
392.761	0.0989
393.088	0.098
393.415	0.0961
393.741	0.0954
394.067	0.0942
394.394	0.0929
394.72	0.0924
395.046	0.0907
395.372	0.0894
395.698	0.0882
396.024	0.0869
396.35	0.0851
396.676	0.0837
397.001	0.0835
397.327	0.0814
397.653	0.0811
397.978	0.0782
398.303	0.0777
398.629	0.0766
398.954	0.0756
399.279	0.0748
399.604	0.073
399.929	0.0723
400.254	0.0718
400.579	0.0709
400.904	0.0698
401.229	0.0687
401.553	0.0675
401.878	0.067
402.202	0.0662
402.527	0.0652
402.851	0.0645
403.175	0.0641
403.5	0.0632
403.824	0.0622
404.148	0.0622
404.472	0.0618
404.796	0.0612
405.119	0.0611
405.443	0.0602
405.767	0.0596
406.09	0.0597
406.414	0.0589
406.737	0.0585
407.061	0.059
407.384	0.0583
407.707	0.0576
408.03	0.0575
408.353	0.0579
408.676	0.0572
408.999	0.0573
409.322	0.0572
409.645	0.0571
409.968	0.0561
410.29	0.0566
410.613	0.0556
410.935	0.0557
411.258	0.0567
411.58	0.0557
411.902	0.0555
412.224	0.0559
412.546	0.0555
412.868	0.0563
413.19	0.0555
413.512	0.0555
413.834	0.0555
414.156	0.0554
414.477	0.0554
414.799	0.0552
415.121	0.0557
415.442	0.0555
415.763	0.0551
416.085	0.0556
416.406	0.0549
416.727	0.0553
417.048	0.0558
417.369	0.0559
417.69	0.0559
418.011	0.0558
418.331	0.0564
418.652	0.056
418.973	0.0561
419.293	0.0564
419.614	0.0565
419.934	0.0567
420.254	0.0572
420.574	0.0563
420.895	0.0566
421.215	0.0561
421.535	0.0559
421.855	0.0563
422.174	0.0566
422.494	0.0567
422.814	0.057
423.134	0.0566
423.453	0.0569
423.773	0.057
424.092	0.058
424.411	0.0571
424.731	0.0572
425.05	0.0577
425.369	0.0573
425.688	0.058
426.007	0.058
426.326	0.0578
426.644	0.0583
426.963	0.0582
427.282	0.0584
427.6	0.0576
427.919	0.0582
428.237	0.059
428.556	0.0588
428.874	0.0584
429.192	0.0597
429.51	0.0592
429.828	0.0592
430.146	0.059
430.464	0.0589
430.782	0.0597
431.1	0.059
431.418	0.0593
431.735	0.06
432.053	0.0597
432.37	0.0591
432.688	0.0593
433.005	0.0603
433.322	0.0596
433.639	0.0601
433.957	0.0605
434.274	0.0602
434.591	0.061
434.907	0.0605
435.224	0.0608
435.541	0.0614
435.858	0.0614
436.174	0.0612
436.491	0.0612
436.807	0.0607
437.124	0.0615
437.44	0.0604
437.756	0.0608
438.072	0.0603
438.388	0.0607
438.704	0.0603
439.02	0.0604
439.336	0.0607
439.652	0.0608
439.968	0.0608
440.283	0.0607
440.599	0.0608
440.914	0.0604
441.23	0.0602
441.545	0.0597
441.86	0.0603
442.175	0.0608
442.491	0.0596
442.806	0.0603
443.121	0.0614
443.435	0.0608
443.75	0.0606
444.065	0.0606
444.38	0.0607
444.694	0.0601
445.009	0.0602
445.323	0.0608
445.638	0.0601
445.952	0.0602
446.266	0.0603
446.58	0.0602
446.894	0.0599
447.208	0.0603
447.522	0.0595
447.836	0.0592
448.15	0.0589
448.464	0.0583
448.777	0.0589
449.091	0.0587
449.404	0.059
449.718	0.0584
450.031	0.059
450.345	0.0582
450.658	0.0584
450.971	0.0581
451.284	0.0591
451.597	0.0588
451.91	0.0587
452.223	0.0578
452.535	0.0578
452.848	0.0586
453.161	0.0576
453.473	0.0583
453.786	0.0583
454.098	0.0574
454.411	0.0586
454.723	0.0573
455.035	0.0574
455.347	0.0562
455.659	0.0564
455.971	0.0556
456.283	0.0558
456.595	0.0554
456.907	0.0553
457.218	0.0555
457.53	0.0554
457.841	0.0556
458.153	0.055
458.464	0.0543
458.776	0.0547
459.087	0.0543
459.398	0.0534
459.709	0.0532
460.02	0.054
460.331	0.0533
460.642	0.0533
460.953	0.0531
461.263	0.0529
461.574	0.0524
461.885	0.0524
462.195	0.0522
462.506	0.0522
462.816	0.052
463.126	0.0518
463.437	0.0511
463.747	0.0519
464.057	0.0511
464.367	0.0514
464.677	0.0507
464.987	0.0501
465.296	0.05
465.606	0.0494
465.916	0.0495
466.225	0.0499
466.535	0.0487
466.844	0.0486
467.154	0.0484
467.463	0.0484
467.772	0.047
468.081	0.0483
468.39	0.0474
468.699	0.0467
469.008	0.0472
469.317	0.047
469.626	0.047
469.935	0.046
470.243	0.0457
470.552	0.046
470.86	0.0447
471.169	0.0445
471.477	0.0451
471.785	0.0438
472.093	0.0442
472.402	0.0436
472.71	0.0437
473.018	0.0434
473.326	0.0428
473.633	0.0423
473.941	0.0419
474.249	0.042
474.556	0.042
474.864	0.0409
475.171	0.0415
475.479	0.0415
475.786	0.0402
476.094	0.0403
476.401	0.0407
476.708	0.04
477.015	0.0399
477.322	0.039
477.629	0.0395
477.936	0.0387
478.242	0.039
478.549	0.0381
478.856	0.0376
479.162	0.0376
479.469	0.0373
479.775	0.037
480.081	0.0374
480.388	0.0365
480.694	0.0369
481	0.0363
481.306	0.0366
481.612	0.0364
481.918	0.0359
482.224	0.036
482.53	0.0345
482.835	0.0344
483.141	0.0338
483.446	0.0343
483.752	0.0343
484.057	0.0327
484.363	0.0333
484.668	0.0333
484.973	0.0323
485.278	0.0324
485.583	0.0319
485.888	0.031
486.193	0.0309
486.498	0.031
486.803	0.0307
487.107	0.0307
487.412	0.0289
487.717	0.0287
488.021	0.0293
488.325	0.0287
488.63	0.0296
488.934	0.0286
489.238	0.0284
489.542	0.0291
489.846	0.0284
490.15	0.0266
490.454	0.0262
490.758	0.0268
491.062	0.027
491.366	0.0263
491.669	0.0253
491.973	0.0256
492.276	0.026
492.58	0.0264
492.883	0.0259
493.186	0.0254
493.489	0.025
493.792	0.0244
494.096	0.0238
494.399	0.0249
494.701	0.0235
495.004	0.0237
495.307	0.0235
495.61	0.0236
495.912	0.0228
496.215	0.0224
496.517	0.0223
496.82	0.0228
497.122	0.0214
497.424	0.0218
497.727	0.021
498.029	0.0209
498.331	0.0203
498.633	0.0212
498.935	0.0205
499.237	0.0203
499.538	0.0196
499.84	0.0209
500.142	0.0198
500.443	0.0197
500.745	0.0198
501.046	0.0188
501.348	0.0185
501.649	0.0197
501.95	0.0189
502.251	0.0188
502.552	0.018
502.853	0.0183
503.154	0.0174
503.455	0.0179
503.756	0.0167
504.057	0.0171
504.357	0.0179
504.658	0.0171
504.958	0.0166
505.259	0.0168
505.559	0.0166
505.859	0.0167
506.16	0.016
506.46	0.0153
506.76	0.0153
507.06	0.0155
507.36	0.0152
507.66	0.0156
507.96	0.0141
508.259	0.014
508.559	0.0139
508.859	0.0134
509.158	0.0142
509.457	0.0144
509.757	0.0128
510.056	0.0126
510.355	0.0125
510.655	0.0128
510.954	0.0128
511.253	0.013
511.552	0.0119
511.851	0.0119
512.149	0.0109
512.448	0.0119
512.747	0.0112
513.045	0.0119
513.344	0.0116
513.642	0.0121
513.941	0.0114
514.239	0.0117
514.537	0.0114
514.836	0.0114
515.134	0.0104
515.432	0.0111
515.73	0.011
516.028	0.0103
516.326	0.0112
516.623	0.0101
516.921	0.0104
517.219	0.0114
517.516	0.01
517.814	0.0099
518.111	0.0094
518.409	0.0089
518.706	0.0098
519.003	0.0087
519.3	0.0087
519.597	0.009
519.894	0.0088
520.191	0.0093
520.488	0.0084
520.785	0.0076
521.082	0.0089
521.378	0.0088
521.675	0.0079
521.971	0.0091
522.268	0.0096
522.564	0.0075
522.861	0.0077
523.157	0.0075
523.453	0.0082
523.749	0.0072
524.045	0.0068
524.341	0.0078
524.637	0.0067
524.933	0.0071
525.229	0.0072
525.524	0.007
525.82	0.0066
526.115	0.0066
526.411	0.0067
526.706	0.0054
527.002	0.0051
527.297	0.0044
527.592	0.006
527.887	0.0053
528.182	0.0051
528.477	0.0058
528.772	0.006
529.067	0.0058
529.362	0.0048
529.657	0.005
529.951	0.0056
530.246	0.0058
530.54	0.0052
530.835	0.0047
531.129	0.0073
531.423	0.0047
531.718	0.0045
532.012	0.0054
532.306	0.0045
532.6	0.0052
532.894	0.0056
533.188	0.0058
533.482	0.0053
533.775	0.0053
534.069	0.0033
534.363	0.0037
534.656	0.0049
534.95	0.004
535.243	0.0036
535.536	0.0055
535.83	0.0043
536.123	0.004
536.416	0.0043
536.709	0.0034
537.002	0.0035
537.295	0.0033
537.588	0.0029
537.881	0.0037
538.173	0.0042
538.466	0.0044
538.759	0.0026
539.051	0.003
539.344	0.0042
539.636	0.004
539.928	0.0035
540.22	0.0032
540.513	0.0031
540.805	0.0029
541.097	0.0036
541.389	0.0033
541.681	0.0041
541.972	0.003
542.264	0.0038
542.556	0.004
542.847	0.0027
543.139	0.0031
543.431	0.003
543.722	0.0029
544.013	0.002
544.305	0.0036
544.596	0.0027
544.887	0.0027
545.178	0.0028
545.469	0.0023
545.76	0.0039
546.051	0.0037
546.342	0.0027
546.632	0.0042
546.923	0.004
547.214	0.0019
547.504	0.0021
547.795	0.0019
548.085	0.003
548.375	0.0023
548.666	0.0011
548.956	0.0033
549.246	0.0028
549.536	0.0026
549.826	0.0034
550.116	0.0027
550.406	0.003
550.695	0.0037
550.985	0.0025
551.275	0.0026
551.564	0.0017
551.854	0.003
552.143	0.0024
552.433	0.0019
552.722	0.0013
553.011	0.0013
553.3	0.0025
553.589	0.0024
553.879	0.0007
554.167	0.0017
554.456	0.0019
554.745	0.003
555.034	0.0018
555.323	0.0002
555.611	0.0014
555.9	0.0026
556.188	0.0013
556.477	0.0025
556.765	0.0018
557.053	0.0022
557.342	0.0033
557.63	0.0015
557.918	0.0026
558.206	0.0031
558.494	0.0031
558.782	0.003
559.069	0.0032
559.357	0.0036
559.645	0.0044
559.932	0.0035
560.22	0.0029
560.507	0.0028
560.795	0.0033
561.082	0.0022
561.37	0.0029
561.657	0.0021
561.944	0.0015
562.231	0.0012
562.518	0.0021
562.805	0.0014
563.092	0.0015
563.379	0.001
563.665	0.0015
563.952	0.002
564.239	0.003
564.525	0.0025
564.811	0.0025
565.098	0.002
565.384	0.0027
565.67	0.0035
565.957	0.0036
566.243	0.0035
566.529	0.0041
566.815	0.0027
567.101	0.0021
567.387	0.0027
567.672	0.0013
567.958	0.0029
568.244	0.0024
568.529	0.0018
568.815	0.0022
569.1	0.0017
569.386	0.0026
569.671	0.0038
569.956	0.0033
570.242	0.0028
570.527	0.003
570.812	0.0029
571.097	0.0036
571.382	0.0034
571.666	0.0032
571.951	0.003
572.236	0.0028
572.521	0.0031
572.805	0.0033
573.09	0.0024
573.374	0.0019
573.659	0.0033
573.943	0.003
574.227	0.003
574.511	0.0024
574.795	0.0032
575.079	0.0029
575.363	0.0027
575.647	0.0028
575.931	0.0027
576.215	0.0018
576.499	0.0015
576.782	0.0024
577.066	0.001
577.349	0.0026
577.633	0.0028
577.916	0.0021
578.2	0.0029
578.483	0.0031
578.766	0.0032
579.049	0.0035
579.332	0.0032
579.615	0.003
579.898	0.0025
580.181	0.0021
580.464	0.0025
580.746	0.0028
581.029	0.0036
581.312	0.0021
581.594	0.0018
581.877	0.0028
582.159	0.0025
582.441	0.0025
582.724	0.0021
583.006	0.0027
583.288	0.0023
583.57	0.0033
583.852	0.0026
584.134	0.0024
584.416	0.0018
584.697	0.0027
584.979	0.0021
585.261	0.0016
585.542	0.0027
585.824	0.0021
586.105	0.003
586.387	0.0028
586.668	0.0023
586.949	0.0016
587.231	0.0025
587.512	0.0024
587.793	0.0026
588.074	0.0026
588.355	0.0022
588.636	0.0023
588.916	0.0023
589.197	0.0031
589.478	0.0026
589.758	0.0023
590.039	0.0026
590.319	0.0024
590.6	0.0021
590.88	0.0021
591.16	0.0018
591.441	0.0024
591.721	0.0014
592.001	0.0013
592.281	0.0017
592.561	0.0022
592.841	0.0017
593.12	0.0022
593.4	0.0016
593.68	0.0021
593.959	0.0022
594.239	0.0027
594.518	0.0031
594.798	0.0022
595.077	0.0025
595.356	0.0026
595.636	0.0021
595.915	0.002
596.194	0.002
596.473	0.0023
596.752	0.0028
597.031	0.0023
597.31	0.0012
597.588	0.0026
597.867	0.0014
598.146	0.0021
598.424	0.0022
598.703	0.0012
598.981	0.0017
599.259	0.0017
599.538	0.002
599.816	0.0022
600.094	0.0014
600.372	0.0017
600.65	0.0022
600.928	0.0021
601.206	-0.0001
601.484	0.0007
601.762	0.0011
602.04	0.0005
602.317	0.0014
602.595	0.0021
602.872	0.0014
603.15	0.0018
603.427	0.0026
603.704	0.0029
603.982	0.0021
604.259	0.002
604.536	0.0024
604.813	0.002
605.09	0.0016
605.367	0.0014
605.644	0.0015
605.921	0.0007
606.197	0.0004
606.474	0.001
606.751	0.0011
607.027	0.0013
607.304	0.0014
607.58	0.0016
607.856	0.0011
608.133	0.0012
608.409	0.0013
608.685	0.0008
608.961	0.0006
609.237	0.0007
609.513	0.0009
609.789	0.0007
610.065	0.0012
610.341	0.0015
610.616	0.0014
610.892	0.0014
611.167	0.0022
611.443	0.0023
611.718	0.0024
611.994	0.0021
612.269	0.0027
612.544	0.0016
612.819	0.0015
613.095	0.002
613.37	0.0022
613.645	0.0022
613.919	0.003
614.194	0.0035
614.469	0.0031
614.744	0.002
615.019	0.0019
615.293	0.0013
615.568	0.0006
615.842	0.0017
616.116	0.0009
616.391	0.0004
616.665	0.0005
616.939	-0
617.213	0.0011
617.488	0.0015
617.762	0.0007
618.035	0.0011
618.309	0.0007
618.583	0.0011
618.857	0.0016
619.131	0.001
619.404	0.0005
619.678	0.0013
619.951	0.0001
620.225	0.0011
620.498	0.0016
620.771	0.0011
621.045	0.0017
621.318	0.0019
621.591	0.0011
621.864	0.0013
622.137	0.0025
622.41	0.0022
622.683	0.0019
622.956	0.0012
623.228	0.0009
623.501	0.0011
623.774	0.0007
624.046	0.0003
624.319	0.0009
624.591	0.0001
624.863	0.0009
625.136	0.0006
625.408	0.0012
625.68	0.0002
625.952	0.0005
626.224	0.0003
626.496	0.0004
626.768	0.0006
627.04	-0.0003
627.311	-0.0005
627.583	0.0003
627.855	0.001
628.126	0.0003
628.398	-0.0002
628.669	-0.0017
628.941	0.0005
629.212	0.0004
629.483	0.0006
629.755	0
630.026	0.0009
630.297	0.0015
630.568	0.0005
630.839	0.0014
631.11	-0.0002
631.38	-0.0005
631.651	-0.0001
631.922	0.0001
632.192	-0.0007
632.463	-0.0001
632.733	0.001
633.004	-0.0004
633.274	0.0005
633.545	0.0005
633.815	0.0007
634.085	0.0003
634.355	0.0007
634.625	0.0012
634.895	0.0023
635.165	0.0014
635.435	0.0012
635.705	0.0002
635.974	-0.0001
636.244	-0.0008
636.514	0.0011
636.783	0
637.053	0.0016
637.322	0.0014
637.591	0.0008
637.861	0
638.13	0.0015
638.399	0.0021
638.668	0.0016
638.937	0.0011
639.206	0.0016
639.475	0.0017
639.744	0.0018
640.013	0.0023
640.281	0.0019
640.55	0.0011
640.819	0.0021
641.087	0.0015
641.356	0.0019
641.624	0.0014
641.892	0.0013
642.161	0.0013
642.429	0.0017
642.697	0.0004
642.965	0.0012
643.233	0.0008
643.501	0.0008
643.769	0.0001
644.037	0.0008
644.305	-0
644.572	0.0005
644.84	-0.0016
645.108	-0.0004
645.375	-0.002
645.643	-0.0029
645.91	-0.0017
646.177	-0.0019
646.445	-0.002
646.712	-0.0022
646.979	-0.0015
647.246	-0.0002
647.513	-0
647.78	0.0006
648.047	0.0013
648.314	0.0025
648.58	0.0009
648.847	0.0014
649.114	0.0003
649.38	-0.0003
649.647	-0.0002
649.913	-0.0004
650.18	-0.0016
650.446	-0.0007
650.712	-0.0014
650.978	-0.0014
651.245	-0.0012
651.511	-0.0004
651.777	-0.0001
652.043	0.0007
652.309	-0.0009
652.574	-0.0002
652.84	-0.0007
653.106	-0.0017
653.371	-0.0015
653.637	-0.0018
653.903	-0.0009
654.168	-0.0007
654.433	0.0004
654.699	0.0028
654.964	0.0031
655.229	0.0013
655.494	0.0015
655.759	-0.0006
656.024	0.0015
656.289	-0
656.554	0.0032
656.819	0.0009
657.084	0.0004
657.349	-0.0002
657.613	0.0008
657.878	0.0007
658.142	-0.0003
658.407	0.0009
658.671	0.0007
658.936	0.0021
659.2	0.0015
659.464	0.0019
659.728	0.0019
659.992	0.0006
660.256	0.0004
660.52	-0.0003
660.784	0.0004
661.048	0.0007
661.312	0.001
661.575	0.0004
661.839	0.0001
662.103	-0.0003
662.366	-0.0005
662.63	0.0001
662.893	0.0015
663.156	0.0011
663.42	0.0013
663.683	0.0001
663.946	0.001
664.209	0.0004
664.472	0.001
664.735	0.0018
664.998	0.0019
665.261	0.0012
665.524	-0.0001
665.786	0.0007
666.049	0.0014
666.312	0.0026
666.574	0.0031
666.837	0.0018
667.099	0.0016
667.361	0.0008
667.624	-0.0002
667.886	0.0002
668.148	0.0011
668.41	0.0012
668.672	0.0009
668.934	0.0006
669.196	0.0014
669.458	0.0026
669.72	0.0021
669.982	0.0016
670.243	0.0015
670.505	0.0008
670.766	0.0003
671.028	0.0009
671.289	0.0009
671.551	0
671.812	0.0001
672.073	0.0011
672.334	0.0005
672.596	0.0017
672.857	0.002
673.118	0.003
673.379	0.0014
673.639	0.0019
673.9	0.0008
674.161	0.0013
674.422	-0.0003
674.682	0.0004
674.943	0.0002
675.203	0.0015
675.464	0.0012
675.724	0.0009
675.985	0.0018
676.245	0.0017
676.505	0.0005
676.765	0.0007
677.025	0.0016
677.285	0.0006
677.545	0.0008
677.805	-0.001
678.065	-0.0004
678.325	0.0018
678.585	0.0014
678.844	0.0018
679.104	0.0018
679.363	0.0003
679.623	0.0004
679.882	0.0008
680.142	0.0012
680.401	0.0011
680.66	0.0016
680.919	0.0012
681.178	0.0012
681.437	0.0015
681.696	0.0012
681.955	0.0021
682.214	0.002
682.473	0.0017
682.732	0.0022
682.99	0.0003
683.249	-0.0001
683.508	0.0005
683.766	0.001
684.024	0.0008
684.283	0.0011
684.541	0.0003
684.799	0.0008
685.058	0.0007
685.316	0.001
685.574	0.0008
685.832	0.0001
686.09	0.0005
686.348	-0.0009
686.606	-0.0006
686.863	-0.0004
687.121	-0.0011
687.379	-0.0012
687.636	-0.0018
687.894	-0.0006
688.151	-0.0007
688.409	-0.0008
688.666	-0.0014
688.923	-0.0004
689.181	0.0001
689.438	0.0011
689.695	0.0015
689.952	0.0023
690.209	0.0014
690.466	0.0011
690.723	0.0003
690.979	-0.0005
691.236	-0.0006
691.493	-0.0002
691.75	-0.0002
692.006	0.0001
692.263	-0.0001
692.519	0.0001
692.775	0.0002
693.032	-0.0001
693.288	-0.0007
693.544	-0.0002
693.8	-0.0002
694.056	-0.0003
694.313	-0.0006
694.568	-0.0002
694.824	-0.0001
695.08	-0.0001
695.336	0.0007
695.592	-0.0013
695.847	-0.0007
696.103	-0.0014
696.359	-0.0007
696.614	-0.0007
696.869	-0.0007
697.125	-0.0011
697.38	-0.0002
697.635	-0.0004
697.891	-0.0005
698.146	-0.0015
698.401	-0.0026
698.656	-0.0021
698.911	-0.0021
699.166	-0.003
699.42	-0.0028
699.675	-0.0019
699.93	-0.0022
700.185	-0.0004
700.439	0.0005
700.694	0.0011
700.948	0
701.203	-0.0004
701.457	-0.0009
701.711	-0.0008
701.965	-0.0001
702.22	0.0004
702.474	0.0009
702.728	0.0018
702.982	0.002
703.236	0.0007
703.49	0.0001
703.743	0.0002
703.997	-0.0011
704.251	-0.0008
704.504	-0.0011
704.758	-0.0003
705.012	-0.0009
705.265	0.0002
705.518	-0.0011
705.772	-0.0002
706.025	-0.0002
706.278	-0.0007
706.531	-0.0009
706.785	-0.0007
707.038	-0.001
707.291	-0.0004
707.543	-0.0015
707.796	-0.0005
708.049	0.0001
708.302	-0.0001
708.555	0.0008
708.807	0.0023
709.06	0.0013
709.312	0.001
709.565	0.0004
709.817	-0.0007
710.069	-0.0004
710.322	-0.0014
710.574	-0.0004
710.826	0.0005
711.078	0.0018
711.33	0.0023
711.582	0.0024
711.834	0.0017
712.086	0.0007
712.338	-0.0006
712.59	-0.0005
712.841	-0.0019
713.093	-0.0008
713.344	-0.0015
713.596	-0.0011
713.847	-0.0009
714.099	-0.0004
714.35	-0.0014
714.601	-0.0023
714.853	-0.002
715.104	-0.0027
715.355	-0.0024
715.606	-0.0007
715.857	-0.0008
716.108	-0.0009
716.359	-0.0015
716.609	-0.001
716.86	-0.0015
717.111	-0.0018
717.361	-0.0023
717.612	-0.0025
717.863	-0.0021
718.113	-0.0037
718.363	-0.0039
718.614	-0.0031
718.864	-0.002
719.114	-0.0027
719.364	-0.0022
719.614	-0.0036
719.865	-0.0034
720.114	-0.0045
720.364	-0.0035
720.614	-0.0027
720.864	-0.0028
721.114	-0.0014
721.364	-0.001
721.613	-0.001
721.863	-0.0005
722.112	-0.0002
722.362	-0.0008
722.611	-0.0009
722.86	-0.0014
723.11	-0.0029
723.359	-0.002
723.608	-0.0026
723.857	-0.0015
724.106	-0.0012
724.355	-0.0011
724.604	-0.0009
724.853	-0.0013
725.102	-0.0019
725.351	-0.0015
725.599	-0.0014
725.848	-0.0003
726.097	0.0001
726.345	0.0014
726.594	0.0023
726.842	0.0013
727.09	0.0002
727.339	-0.0007
727.587	-0.0011
727.835	-0.0026
728.083	-0.0021
728.331	-0.0034
728.579	-0.0017
728.827	-0.0003
729.075	-0.0001
729.323	0.0008
729.571	0.0016
729.818	0.001
730.066	0.0009
730.314	0.0003
730.561	0
730.809	-0.0023
731.056	-0.0014
731.303	-0.0002
731.551	-0.0013
731.798	-0.0014
732.045	-0.0001
732.292	0.0001
732.539	-0.0007
732.786	-0.0014
733.033	-0.0015
733.28	0
733.527	-0.0007
733.774	-0.0016
734.021	-0.0009
734.267	-0.0007
734.514	-0.0013
734.76	0.0002
735.007	-0.0011
735.253	-0.0007
735.5	-0.0014
735.746	-0.0004
735.992	-0.0006
736.238	-0.0007
736.485	-0.0012
736.731	-0.0022
736.977	-0.0033
737.223	-0.0026
737.469	-0.0033
737.715	-0.0009
737.96	-0.001
738.206	0.0009
738.452	0.002
738.697	0.0027
738.943	0.0016
739.189	0.0008
739.434	0.0009
739.679	0.0009
739.925	0.0016
740.17	0.0004
740.415	0.0014
740.66	0.0012
740.906	0.0001
741.151	0.0009
741.396	0.0002
741.641	-0
741.886	-0.0004
742.13	0.0006
742.375	-0
742.62	-0.0003
742.865	-0.0002
743.109	-0.0006
743.354	-0.0018
743.598	-0.001
743.843	-0.0007
744.087	-0.0004
744.331	-0.0007
744.576	-0.0003
744.82	-0.0024
745.064	-0.0019
745.308	-0.0016
745.552	-0.0014
745.796	-0.0004
746.04	-0.0012
746.284	-0.0012
746.528	-0.0016
746.771	-0.0019
747.015	-0.0024
747.259	-0.0023
747.502	-0.0005
747.746	-0.0006
747.989	-0.0015
748.233	-0.0023
748.476	-0.0016
748.719	-0.0023
748.963	-0.0024
749.206	-0.0008
749.449	-0.0008
749.692	0.0003
749.935	0.0008
750.178	-0.0002
750.421	-0.0019
750.664	-0.0027
750.906	-0.0035
751.149	-0.0042
751.392	-0.0041
751.635	-0.0037
751.877	-0.0024
752.12	-0.0029
752.362	-0.003
752.604	-0.0037
752.847	-0.0023
753.089	-0.0021
753.331	-0.0027
753.573	-0.0015
753.816	-0.0012
754.058	-0.0017
754.3	-0.001
754.542	-0.0007
754.783	-0.0013
755.025	-0.0014
755.267	-0.0029
755.509	-0.0034
755.75	-0.0033
755.992	-0.0026
756.234	-0.0023
756.475	-0.0021
756.716	-0.0009
756.958	-0.001
757.199	0
757.44	-0.0025
757.682	-0.0025
757.923	-0.0021
758.164	-0.0018
758.405	-0.0016
758.646	-0.0015
758.887	-0.0012
759.128	-0.0028
759.369	-0.0031
759.609	-0.0028
759.85	-0.0026
760.091	-0.0019
760.331	-0.0023
760.572	-0.0021
760.812	-0.002
761.053	-0.0009
761.293	0.0002
761.533	-0.0007
761.774	0.001
762.014	0.0005
762.254	-0.0008
762.494	-0.0005
762.734	-0.0003
762.974	-0.0012
763.214	-0.0007
763.454	-0.0013
763.694	-0.0006
763.933	0.0002
764.173	0.0001
764.413	0.0002
764.652	-0.0009
764.892	-0.0013
765.131	-0.0022
765.371	-0.0016
765.61	-0.0019
765.849	-0.0027
766.089	-0.0022
766.328	-0.0015
766.567	-0.0011
766.806	-0.0018
767.045	0
767.284	-0.0005
767.523	0.0001
767.762	-0.0016
768.001	-0.0012
768.239	-0.0015
768.478	-0.0001
768.717	-0.001
768.955	-0.0014
769.194	-0.0006
769.432	-0.0008
769.671	-0.0006
769.909	0.0007
770.148	-0.0001
770.386	0.0007
770.624	0.0003
770.862	0.0007
771.1	0.001
771.338	0.0006
771.576	0.0015
771.814	-0.0003
772.052	-0.0003
772.29	-0.001
772.528	-0.0009
772.765	0.0001
773.003	0.0004
773.24	0.0017
773.478	0.0008
773.716	0.0016
773.953	0.0016
774.19	0.0028
774.428	0.0028
774.665	0.0037
774.902	0.0032
775.139	0.0035
775.376	0.0021
775.613	0.0031
775.85	0.0033
776.087	0.0038
776.324	0.004
776.561	0.0052
776.798	0.0048
777.034	0.0054
777.271	0.0043
777.508	0.0045
777.744	0.0035
777.981	0.0035
778.217	0.0024
778.454	0.0022
778.69	0.0016
778.926	0.001
779.162	-0.0011
779.399	-0.0017
779.635	-0.0027
779.871	-0.0027
780.107	-0.002
780.343	-0.0016
780.579	-0.0011
780.814	-0.001
781.05	-0.0012
781.286	-0.0014
781.522	0.0004
781.757	0.0011
781.993	0.0013
782.228	0.0019
782.464	0.001
782.699	0.0016
782.934	0.0007
783.17	0.0016
783.405	0.0017
783.64	0.0014
783.875	0.0011
784.11	0.002
784.345	0.0029
784.58	0.0026
784.815	0.0032
785.05	0.0019
785.285	0.0012
785.52	0.0017
785.754	0.0015
785.989	0.0004
786.223	0.0006
786.458	0.0014
786.692	0.0015
786.927	0.0025
787.161	0.0007
787.396	0.0021
787.63	0.0026
787.864	0.0024
788.098	0.002
788.332	0.0016
788.566	0.0017
788.8	0.0014
789.034	0.0009
789.268	0.0019
789.502	0.0031
789.736	0.0032
789.969	0.0026
790.203	0.0024
790.437	0.0017
790.67	0.001
790.904	0.0006
791.137	0.0008
791.37	0.0004
791.604	-0.0006
791.837	-0.001
792.07	-0.0009
792.303	-0.0006
792.537	-0.0019
792.77	-0.0021
793.003	-0.0018
793.236	-0.0018
793.469	0.0003
793.701	-0.0002
793.934	-0.001
794.167	-0.0008
794.4	-0.0011
794.632	0.0003
794.865	-0.001
795.097	-0.0006
795.33	-0.0013
795.562	-0.0005
795.795	0.0002
796.027	-0.0013
796.259	-0.0013
796.491	-0.0021
796.724	-0.001
796.956	-0.0009
797.188	-0.0005
797.42	-0.0005
797.652	-0.0001
797.883	-0.0004
798.115	-0.0004
798.347	-0.0019
798.579	-0.002
798.81	-0.0025
799.042	-0.002
799.274	-0.0019
799.505	-0.0009
799.737	-0.0008
799.968	0.0004
800.199	0.0013
800.431	0.0022
800.662	0.0024
800.893	0.0029
801.124	0.0023
801.355	0.0028
801.586	0.0036
801.817	0.0017
802.048	0.0016
802.279	0.0005
802.51	-0.001
802.741	0.0005
802.971	-0.0008
803.202	-0.0014
803.433	-0.0019
803.663	-0.0019
803.894	-0.0013
804.124	0
804.354	-0.0018
804.585	-0.0009
804.815	-0.0013
805.045	-0.0022
805.275	-0.0013
805.506	-0.039
805.736	0.0026
805.966	0.107
806.196	0.1598
