Data from 03 0.5 mM K2Cr2O7 0.2 mM BQDS 1 M H2SO4 5 min_Absorbance_0031.txt Node
Date: Thu Dec 09 18:21:44 EST 2021
User: kwabilab-user
Spectrometer: HDX00518
Trigger mode: 0
Integration Time (sec): 5.000000E-2
Scans to average: 50
Nonlinearity correction enabled: false
Boxcar width: 0
Storing dark spectrum: false
XAxis mode: Wavelengths
Number of Pixels in Spectrum: 2068
>>>>>Begin Spectral Data<<<<<
195.27	-0.1085
195.642	-0.112
196.014	-0.0894
196.386	-0
196.758	-0.0794
197.129	-0.0163
197.501	-0.0031
197.872	0.0386
198.244	0.0669
198.615	0.096
198.986	0.082
199.357	0.0614
199.728	0.0743
200.099	0.0737
200.47	0.0826
200.841	0.074
201.212	0.0798
201.582	0.0706
201.953	0.0677
202.323	0.0522
202.694	0.0694
203.064	0.0695
203.434	0.0891
203.804	0.0741
204.174	0.0881
204.544	0.0627
204.914	0.0682
205.284	0.0783
205.653	0.0765
206.023	0.0744
206.393	0.0865
206.762	0.0717
207.131	0.0704
207.501	0.0725
207.87	0.0512
208.239	0.0592
208.608	0.0683
208.977	0.069
209.346	0.0809
209.715	0.0828
210.083	0.082
210.452	0.087
210.82	0.0733
211.189	0.0722
211.557	0.0815
211.925	0.0876
212.294	0.0788
212.662	0.0953
213.03	0.1021
213.398	0.1029
213.766	0.1116
214.133	0.1093
214.501	0.1109
214.869	0.1303
215.236	0.1146
215.604	0.1448
215.971	0.1693
216.338	0.171
216.705	0.1703
217.072	0.2159
217.439	0.2019
217.806	0.235
218.173	0.2545
218.54	0.2675
218.907	0.2983
219.273	0.3319
219.64	0.3715
220.006	0.4151
220.373	0.4213
220.739	0.4571
221.105	0.5134
221.471	0.5312
221.837	0.5886
222.203	0.6273
222.569	0.6555
222.935	0.6889
223.3	0.7327
223.666	0.7702
224.031	0.7972
224.397	0.8325
224.762	0.8602
225.127	0.9023
225.493	0.9242
225.858	0.9603
226.223	0.9704
226.588	0.9893
226.952	1.0002
227.317	1.0209
227.682	1.0277
228.046	1.0262
228.411	1.0424
228.775	1.0566
229.14	1.0657
229.504	1.0636
229.868	1.0674
230.232	1.0692
230.596	1.0728
230.96	1.0779
231.324	1.0673
231.688	1.0574
232.052	1.0678
232.415	1.0563
232.779	1.0568
233.142	1.0588
233.505	1.056
233.869	1.0505
234.232	1.0352
234.595	1.0232
234.958	1.0238
235.321	1.0113
235.684	1.0109
236.047	1.0012
236.409	0.9906
236.772	0.9866
237.134	0.9771
237.497	0.9683
237.859	0.975
238.222	0.9596
238.584	0.9539
238.946	0.9426
239.308	0.9399
239.67	0.935
240.032	0.9219
240.393	0.9191
240.755	0.9118
241.117	0.9129
241.478	0.9029
241.84	0.8988
242.201	0.8933
242.562	0.8847
242.924	0.8835
243.285	0.8747
243.646	0.8754
244.007	0.8678
244.368	0.8659
244.728	0.8575
245.089	0.8571
245.45	0.8534
245.81	0.8492
246.171	0.8486
246.531	0.8427
246.891	0.8431
247.252	0.8408
247.612	0.8356
247.972	0.8339
248.332	0.8332
248.692	0.8343
249.051	0.8324
249.411	0.8275
249.771	0.82
250.13	0.8207
250.49	0.8251
250.849	0.8214
251.208	0.8204
251.568	0.8176
251.927	0.8188
252.286	0.8194
252.645	0.8175
253.004	0.8186
253.363	0.8171
253.721	0.8131
254.08	0.8179
254.439	0.8112
254.797	0.8112
255.155	0.8127
255.514	0.8118
255.872	0.8106
256.23	0.8106
256.588	0.8109
256.946	0.8121
257.304	0.8109
257.662	0.8106
258.02	0.81
258.377	0.8075
258.735	0.8066
259.093	0.8088
259.45	0.806
259.807	0.8041
260.165	0.8079
260.522	0.8028
260.879	0.7985
261.236	0.8032
261.593	0.8021
261.95	0.7985
262.306	0.8003
262.663	0.7978
263.02	0.7993
263.376	0.7956
263.733	0.7944
264.089	0.7946
264.445	0.7893
264.802	0.7913
265.158	0.7881
265.514	0.7842
265.87	0.7832
266.226	0.7805
266.581	0.7796
266.937	0.7793
267.293	0.7773
267.648	0.7724
268.004	0.7704
268.359	0.7676
268.714	0.763
269.07	0.763
269.425	0.7601
269.78	0.7578
270.135	0.7568
270.49	0.7522
270.844	0.7508
271.199	0.7473
271.554	0.7446
271.908	0.7392
272.263	0.7364
272.617	0.7335
272.972	0.7312
273.326	0.7261
273.68	0.7233
274.034	0.7198
274.388	0.7151
274.742	0.7117
275.096	0.7083
275.45	0.7043
275.803	0.6992
276.157	0.697
276.51	0.6903
276.864	0.6859
277.217	0.681
277.571	0.6796
277.924	0.6715
278.277	0.6678
278.63	0.6617
278.983	0.6563
279.336	0.6547
279.688	0.6487
280.041	0.6422
280.394	0.6378
280.746	0.6332
281.099	0.6283
281.451	0.6211
281.803	0.6162
282.156	0.6114
282.508	0.606
282.86	0.6017
283.212	0.5949
283.564	0.5883
283.916	0.5836
284.267	0.5787
284.619	0.5723
284.971	0.5659
285.322	0.5608
285.673	0.5548
286.025	0.549
286.376	0.5445
286.727	0.5382
287.078	0.5313
287.429	0.5247
287.78	0.5189
288.131	0.5131
288.482	0.5075
288.833	0.4996
289.183	0.4938
289.534	0.4882
289.884	0.4823
290.235	0.4759
290.585	0.4695
290.935	0.4635
291.285	0.4578
291.635	0.4523
291.985	0.4459
292.335	0.4409
292.685	0.4335
293.035	0.4276
293.384	0.4221
293.734	0.4137
294.083	0.4099
294.433	0.4036
294.782	0.3974
295.131	0.3915
295.48	0.386
295.829	0.3803
296.179	0.3741
296.527	0.369
296.876	0.3628
297.225	0.3563
297.574	0.3514
297.922	0.3461
298.271	0.3393
298.619	0.335
298.968	0.33
299.316	0.3251
299.664	0.3207
300.012	0.3148
300.36	0.3116
300.708	0.3059
301.056	0.3013
301.404	0.2961
301.752	0.293
302.099	0.2886
302.447	0.2842
302.794	0.28
303.142	0.276
303.489	0.2721
303.836	0.2686
304.183	0.2651
304.531	0.2611
304.878	0.2583
305.224	0.2553
305.571	0.2518
305.918	0.2487
306.265	0.2459
306.611	0.2431
306.958	0.2411
307.304	0.2381
307.651	0.2355
307.997	0.2334
308.343	0.2317
308.689	0.2293
309.035	0.2279
309.381	0.2261
309.727	0.2248
310.073	0.223
310.419	0.221
310.764	0.2201
311.11	0.2189
311.455	0.218
311.801	0.2163
312.146	0.2157
312.491	0.2156
312.837	0.2147
313.182	0.2138
313.527	0.2144
313.872	0.2133
314.216	0.2139
314.561	0.2129
314.906	0.2129
315.251	0.2131
315.595	0.2128
315.94	0.2132
316.284	0.2139
316.628	0.2139
316.972	0.215
317.317	0.2153
317.661	0.2161
318.005	0.2155
318.348	0.2173
318.692	0.2177
319.036	0.2182
319.38	0.22
319.723	0.2211
320.067	0.2216
320.41	0.2234
320.754	0.2242
321.097	0.2262
321.44	0.2271
321.783	0.2293
322.126	0.2302
322.469	0.2321
322.812	0.2335
323.155	0.2354
323.498	0.2373
323.84	0.2394
324.183	0.2404
324.525	0.2429
324.868	0.244
325.21	0.2468
325.552	0.2487
325.894	0.2511
326.236	0.2525
326.578	0.255
326.92	0.2561
327.262	0.2585
327.604	0.2605
327.946	0.2636
328.287	0.2648
328.629	0.2671
328.97	0.2695
329.312	0.2725
329.653	0.2742
329.994	0.2763
330.335	0.2787
330.676	0.2816
331.017	0.2841
331.358	0.2861
331.699	0.2889
332.04	0.2914
332.38	0.2941
332.721	0.2958
333.061	0.2986
333.402	0.2999
333.742	0.3031
334.083	0.3048
334.423	0.3062
334.763	0.309
335.103	0.3104
335.443	0.3135
335.783	0.3145
336.123	0.3165
336.462	0.3183
336.802	0.3209
337.141	0.3225
337.481	0.3242
337.82	0.3262
338.16	0.3283
338.499	0.3303
338.838	0.3326
339.177	0.3337
339.516	0.337
339.855	0.3374
340.194	0.3398
340.533	0.3419
340.872	0.3431
341.21	0.3447
341.549	0.3459
341.887	0.3475
342.226	0.3483
342.564	0.3489
342.902	0.3493
343.24	0.351
343.578	0.3521
343.916	0.3529
344.254	0.3526
344.592	0.3527
344.93	0.3542
345.268	0.3544
345.605	0.3547
345.943	0.3553
346.28	0.3563
346.618	0.3561
346.955	0.3563
347.292	0.3576
347.629	0.3567
347.966	0.3578
348.303	0.3585
348.64	0.3585
348.977	0.3584
349.314	0.3586
349.65	0.358
349.987	0.3586
350.324	0.358
350.66	0.3577
350.996	0.357
351.333	0.3566
351.669	0.3563
352.005	0.3549
352.341	0.3542
352.677	0.3536
353.013	0.3518
353.349	0.3503
353.685	0.3497
354.02	0.3476
354.356	0.3465
354.691	0.3452
355.027	0.3449
355.362	0.3424
355.697	0.3413
356.033	0.3397
356.368	0.3377
356.703	0.3371
357.038	0.3359
357.373	0.3343
357.707	0.3331
358.042	0.3321
358.377	0.3295
358.711	0.3286
359.046	0.3266
359.38	0.3259
359.715	0.3241
360.049	0.3223
360.383	0.3211
360.717	0.3197
361.051	0.316
361.385	0.3153
361.719	0.3127
362.053	0.3098
362.387	0.3067
362.72	0.3057
363.054	0.3022
363.387	0.3006
363.721	0.2971
364.054	0.2948
364.387	0.2919
364.721	0.2899
365.054	0.2873
365.387	0.284
365.72	0.2819
366.053	0.2797
366.385	0.2779
366.718	0.2751
367.051	0.2728
367.383	0.2707
367.716	0.2686
368.048	0.2671
368.381	0.2647
368.713	0.263
369.045	0.2603
369.377	0.2592
369.709	0.2573
370.041	0.2549
370.373	0.2525
370.705	0.2506
371.037	0.2482
371.368	0.2458
371.7	0.2432
372.031	0.2403
372.363	0.2381
372.694	0.2358
373.025	0.233
373.356	0.2291
373.688	0.2259
374.019	0.2225
374.35	0.2207
374.68	0.2176
375.011	0.2146
375.342	0.2122
375.673	0.2089
376.003	0.2069
376.334	0.2032
376.664	0.2012
376.995	0.1991
377.325	0.1966
377.655	0.1936
377.985	0.1912
378.315	0.189
378.645	0.1876
378.975	0.1859
379.305	0.1836
379.635	0.1811
379.964	0.1802
380.294	0.1781
380.623	0.1767
380.953	0.1736
381.282	0.1725
381.611	0.1696
381.941	0.1683
382.27	0.166
382.599	0.164
382.928	0.1622
383.257	0.1605
383.585	0.1576
383.914	0.1559
384.243	0.1534
384.571	0.151
384.9	0.1491
385.228	0.1456
385.557	0.1431
385.885	0.1415
386.213	0.139
386.541	0.137
386.869	0.1342
387.197	0.1322
387.525	0.1284
387.853	0.1274
388.181	0.1248
388.508	0.1234
388.836	0.1202
389.164	0.1191
389.491	0.1177
389.818	0.1163
390.146	0.114
390.473	0.1118
390.8	0.1104
391.127	0.1088
391.454	0.1072
391.781	0.1056
392.108	0.1042
392.435	0.1026
392.761	0.1013
393.088	0.0998
393.415	0.0988
393.741	0.0975
394.067	0.0966
394.394	0.0949
394.72	0.0944
395.046	0.0925
395.372	0.0914
395.698	0.0901
396.024	0.0887
396.35	0.0874
396.676	0.0857
397.001	0.0852
397.327	0.0834
397.653	0.0827
397.978	0.08
398.303	0.0795
398.629	0.0783
398.954	0.0776
399.279	0.0766
399.604	0.0752
399.929	0.0743
400.254	0.0732
400.579	0.0724
400.904	0.0712
401.229	0.0699
401.553	0.07
401.878	0.0688
402.202	0.0673
402.527	0.0669
402.851	0.0658
403.175	0.0652
403.5	0.0651
403.824	0.0642
404.148	0.0635
404.472	0.0635
404.796	0.0627
405.119	0.0627
405.443	0.0619
405.767	0.0616
406.09	0.0613
406.414	0.0607
406.737	0.0601
407.061	0.0609
407.384	0.0601
407.707	0.0596
408.03	0.0589
408.353	0.0591
408.676	0.0584
408.999	0.0583
409.322	0.0582
409.645	0.0582
409.968	0.0581
410.29	0.058
410.613	0.0574
410.935	0.058
411.258	0.0577
411.58	0.0573
411.902	0.057
412.224	0.0573
412.546	0.0574
412.868	0.0574
413.19	0.0567
413.512	0.0567
413.834	0.0566
414.156	0.0561
414.477	0.0564
414.799	0.0559
415.121	0.0571
415.442	0.0561
415.763	0.0565
416.085	0.0571
416.406	0.0566
416.727	0.056
417.048	0.0563
417.369	0.0564
417.69	0.0573
418.011	0.057
418.331	0.0572
418.652	0.0577
418.973	0.0576
419.293	0.0575
419.614	0.0581
419.934	0.0584
420.254	0.058
420.574	0.0583
420.895	0.0576
421.215	0.0575
421.535	0.0571
421.855	0.0572
422.174	0.0579
422.494	0.058
422.814	0.0581
423.134	0.0582
423.453	0.0582
423.773	0.0589
424.092	0.0585
424.411	0.0581
424.731	0.0587
425.05	0.0592
425.369	0.0586
425.688	0.0596
426.007	0.0601
426.326	0.0592
426.644	0.0597
426.963	0.0599
427.282	0.0595
427.6	0.0588
427.919	0.0601
428.237	0.0599
428.556	0.0606
428.874	0.0594
429.192	0.0611
429.51	0.0596
429.828	0.0602
430.146	0.06
430.464	0.0605
430.782	0.0607
431.1	0.0604
431.418	0.0614
431.735	0.0612
432.053	0.0612
432.37	0.0613
432.688	0.0606
433.005	0.0615
433.322	0.0608
433.639	0.0611
433.957	0.0613
434.274	0.0615
434.591	0.0616
434.907	0.0615
435.224	0.0622
435.541	0.0625
435.858	0.063
436.174	0.0623
436.491	0.0621
436.807	0.0619
437.124	0.0626
437.44	0.0617
437.756	0.0619
438.072	0.0618
438.388	0.0622
438.704	0.0619
439.02	0.0615
439.336	0.0619
439.652	0.0622
439.968	0.0622
440.283	0.0624
440.599	0.0618
440.914	0.0611
441.23	0.0616
441.545	0.0608
441.86	0.0613
442.175	0.0623
442.491	0.0614
442.806	0.0611
443.121	0.0623
443.435	0.0616
443.75	0.0618
444.065	0.0619
444.38	0.0616
444.694	0.0626
445.009	0.0617
445.323	0.0623
445.638	0.061
445.952	0.0613
446.266	0.0613
446.58	0.0607
446.894	0.0609
447.208	0.0612
447.522	0.0603
447.836	0.0603
448.15	0.0602
448.464	0.0593
448.777	0.0599
449.091	0.0592
449.404	0.0599
449.718	0.0595
450.031	0.06
450.345	0.0597
450.658	0.06
450.971	0.0591
451.284	0.0593
451.597	0.0595
451.91	0.0591
452.223	0.0584
452.535	0.0591
452.848	0.0595
453.161	0.0589
453.473	0.0587
453.786	0.0589
454.098	0.0578
454.411	0.0596
454.723	0.0577
455.035	0.0578
455.347	0.0576
455.659	0.057
455.971	0.0568
456.283	0.0569
456.595	0.0562
456.907	0.0568
457.218	0.0569
457.53	0.0562
457.841	0.0555
458.153	0.0566
458.464	0.0559
458.776	0.0564
459.087	0.0548
459.398	0.0545
459.709	0.0545
460.02	0.0541
460.331	0.0545
460.642	0.0537
460.953	0.0538
461.263	0.0537
461.574	0.0531
461.885	0.0542
462.195	0.0536
462.506	0.0535
462.816	0.0525
463.126	0.0528
463.437	0.0525
463.747	0.053
464.057	0.052
464.367	0.0519
464.677	0.0513
464.987	0.0515
465.296	0.051
465.606	0.0506
465.916	0.0506
466.225	0.0505
466.535	0.0499
466.844	0.0497
467.154	0.0496
467.463	0.0493
467.772	0.0481
468.081	0.049
468.39	0.0478
468.699	0.0483
469.008	0.0482
469.317	0.0479
469.626	0.0478
469.935	0.047
470.243	0.0475
470.552	0.0462
470.86	0.0452
471.169	0.0451
471.477	0.0453
471.785	0.0451
472.093	0.045
472.402	0.0441
472.71	0.0444
473.018	0.0447
473.326	0.0437
473.633	0.0428
473.941	0.0427
474.249	0.0434
474.556	0.0423
474.864	0.0415
475.171	0.0414
475.479	0.0411
475.786	0.041
476.094	0.0415
476.401	0.0417
476.708	0.0405
477.015	0.0401
477.322	0.0398
477.629	0.0393
477.936	0.0397
478.242	0.0397
478.549	0.0392
478.856	0.0387
479.162	0.0383
479.469	0.0376
479.775	0.0382
480.081	0.0379
480.388	0.0373
480.694	0.0372
481	0.0365
481.306	0.0373
481.612	0.0366
481.918	0.036
482.224	0.0369
482.53	0.0351
482.835	0.0352
483.141	0.035
483.446	0.0355
483.752	0.0341
484.057	0.0335
484.363	0.0339
484.668	0.0328
484.973	0.0322
485.278	0.0325
485.583	0.0319
485.888	0.0311
486.193	0.0305
486.498	0.0328
486.803	0.0325
487.107	0.0304
487.412	0.0299
487.717	0.0301
488.021	0.0298
488.325	0.0296
488.63	0.0298
488.934	0.0296
489.238	0.0287
489.542	0.0283
489.846	0.0286
490.15	0.0271
490.454	0.0277
490.758	0.0276
491.062	0.0267
491.366	0.0276
491.669	0.0259
491.973	0.027
492.276	0.0267
492.58	0.0258
492.883	0.0249
493.186	0.025
493.489	0.0253
493.792	0.0244
494.096	0.0244
494.399	0.0245
494.701	0.0236
495.004	0.0242
495.307	0.0238
495.61	0.0251
495.912	0.0228
496.215	0.0232
496.517	0.0222
496.82	0.0228
497.122	0.023
497.424	0.022
497.727	0.0212
498.029	0.0223
498.331	0.0208
498.633	0.0212
498.935	0.0206
499.237	0.021
499.538	0.0205
499.84	0.0212
500.142	0.0197
500.443	0.0206
500.745	0.0195
501.046	0.019
501.348	0.0189
501.649	0.02
501.95	0.0195
502.251	0.0186
502.552	0.0177
502.853	0.018
503.154	0.018
503.455	0.018
503.756	0.0173
504.057	0.0176
504.357	0.0179
504.658	0.0173
504.958	0.0164
505.259	0.0162
505.559	0.0165
505.859	0.0164
506.16	0.0166
506.46	0.0158
506.76	0.0161
507.06	0.0157
507.36	0.016
507.66	0.015
507.96	0.0136
508.259	0.014
508.559	0.0151
508.859	0.0148
509.158	0.0148
509.457	0.0139
509.757	0.0132
510.056	0.0132
510.355	0.0128
510.655	0.0143
510.954	0.0131
511.253	0.0129
511.552	0.0116
511.851	0.0123
512.149	0.0117
512.448	0.0119
512.747	0.0114
513.045	0.0119
513.344	0.0112
513.642	0.0132
513.941	0.0109
514.239	0.0117
514.537	0.0122
514.836	0.0126
515.134	0.0108
515.432	0.0114
515.73	0.0109
516.028	0.0094
516.326	0.0112
516.623	0.0107
516.921	0.011
517.219	0.0113
517.516	0.011
517.814	0.0099
518.111	0.0092
518.409	0.0089
518.706	0.0101
519.003	0.008
519.3	0.01
519.597	0.0094
519.894	0.0095
520.191	0.009
520.488	0.0095
520.785	0.0081
521.082	0.0091
521.378	0.0081
521.675	0.0085
521.971	0.0088
522.268	0.0086
522.564	0.0077
522.861	0.0087
523.157	0.0069
523.453	0.0084
523.749	0.0065
524.045	0.0061
524.341	0.0076
524.637	0.0062
524.933	0.008
525.229	0.0078
525.524	0.0074
525.82	0.0061
526.115	0.0062
526.411	0.0055
526.706	0.0054
527.002	0.0056
527.297	0.0059
527.592	0.0071
527.887	0.006
528.182	0.0054
528.477	0.0057
528.772	0.0052
529.067	0.0052
529.362	0.0046
529.657	0.0052
529.951	0.0058
530.246	0.0064
530.54	0.0057
530.835	0.0047
531.129	0.0071
531.423	0.0043
531.718	0.005
532.012	0.0055
532.306	0.0035
532.6	0.0038
532.894	0.0048
533.188	0.004
533.482	0.0054
533.775	0.0048
534.069	0.0043
534.363	0.0032
534.656	0.0045
534.95	0.0035
535.243	0.0037
535.536	0.0054
535.83	0.0041
536.123	0.0043
536.416	0.0046
536.709	0.0044
537.002	0.0033
537.295	0.0028
537.588	0.0036
537.881	0.0035
538.173	0.0039
538.466	0.003
538.759	0.0022
539.051	0.0043
539.344	0.0034
539.636	0.0035
539.928	0.0045
540.22	0.0032
540.513	0.0035
540.805	0.0038
541.097	0.0033
541.389	0.003
541.681	0.0046
541.972	0.0033
542.264	0.0034
542.556	0.0036
542.847	0.0021
543.139	0.0036
543.431	0.0035
543.722	0.0033
544.013	0.0023
544.305	0.0029
544.596	0.0026
544.887	0.0031
545.178	0.0028
545.469	0.0023
545.76	0.0037
546.051	0.0033
546.342	0.002
546.632	0.0038
546.923	0.0031
547.214	0.0021
547.504	0.002
547.795	0.0026
548.085	0.0028
548.375	0.0024
548.666	0.0022
548.956	0.0037
549.246	0.0019
549.536	0.0026
549.826	0.0022
550.116	0.0025
550.406	0.0027
550.695	0.0041
550.985	0.0023
551.275	0.002
551.564	0.002
551.854	0.0027
552.143	0.0033
552.433	0.002
552.722	0.0023
553.011	0.0017
553.3	0.002
553.589	0.0018
553.879	0.0015
554.167	0.0025
554.456	0.0021
554.745	0.0031
555.034	0.0022
555.323	0.0005
555.611	0.0018
555.9	0.0026
556.188	0.0015
556.477	0.0026
556.765	0.0016
557.053	0.0014
557.342	0.0017
557.63	0.0017
557.918	0.0022
558.206	0.0032
558.494	0.004
558.782	0.0029
559.069	0.0033
559.357	0.0035
559.645	0.0032
559.932	0.0022
560.22	0.0024
560.507	0.0021
560.795	0.0019
561.082	0.0019
561.37	0.0028
561.657	0.0031
561.944	0.0014
562.231	0.0009
562.518	0.001
562.805	0.0007
563.092	0.0018
563.379	0.0014
563.665	0.0012
563.952	0.0026
564.239	0.0039
564.525	0.0024
564.811	0.003
565.098	0.0021
565.384	0.0027
565.67	0.0033
565.957	0.004
566.243	0.0029
566.529	0.0035
566.815	0.0029
567.101	0.0016
567.387	0.0016
567.672	0.0013
567.958	0.002
568.244	0.0023
568.529	0.0022
568.815	0.0018
569.1	0.002
569.386	0.0028
569.671	0.0038
569.956	0.0023
570.242	0.0035
570.527	0.0026
570.812	0.0029
571.097	0.0028
571.382	0.0035
571.666	0.0037
571.951	0.0032
572.236	0.0034
572.521	0.0033
572.805	0.0037
573.09	0.0022
573.374	0.0011
573.659	0.0034
573.943	0.0039
574.227	0.0037
574.511	0.0028
574.795	0.0033
575.079	0.0035
575.363	0.0022
575.647	0.0031
575.931	0.003
576.215	0.0012
576.499	0.0012
576.782	0.0022
577.066	0.0018
577.349	0.0024
577.633	0.002
577.916	0.0013
578.2	0.0026
578.483	0.0037
578.766	0.004
579.049	0.0039
579.332	0.0034
579.615	0.0028
579.898	0.0019
580.181	0.0028
580.464	0.0017
580.746	0.002
581.029	0.0032
581.312	0.0021
581.594	0.0008
581.877	0.0036
582.159	0.0043
582.441	0.0027
582.724	0.0035
583.006	0.0036
583.288	0.0027
583.57	0.0037
583.852	0.0035
584.134	0.0025
584.416	0.0019
584.697	0.0026
584.979	0.0019
585.261	0.0014
585.542	0.003
585.824	0.0023
586.105	0.0025
586.387	0.0033
586.668	0.0025
586.949	0.0016
587.231	0.0023
587.512	0.0022
587.793	0.0027
588.074	0.0029
588.355	0.0023
588.636	0.0023
588.916	0.0031
589.197	0.0042
589.478	0.0029
589.758	0.0027
590.039	0.0023
590.319	0.0026
590.6	0.0027
590.88	0.0023
591.16	0.0018
591.441	0.0013
591.721	0.002
592.001	0.0012
592.281	0.0019
592.561	0.0019
592.841	0.0001
593.12	0.0025
593.4	0.0022
593.68	0.0018
593.959	0.0029
594.239	0.0033
594.518	0.0039
594.798	0.0028
595.077	0.002
595.356	0.0022
595.636	0.0017
595.915	0.0026
596.194	0.0027
596.473	0.0021
596.752	0.0027
597.031	0.0024
597.31	0.0017
597.588	0.0026
597.867	0.0017
598.146	0.0032
598.424	0.0027
598.703	0.001
598.981	0.0008
599.259	0.0019
599.538	0.0035
599.816	0.0023
600.094	0.001
600.372	0.0022
600.65	0.0029
600.928	0.0022
601.206	-0.0003
601.484	0.0016
601.762	0.0014
602.04	0.0006
602.317	0.0017
602.595	0.0017
602.872	0.0007
603.15	0.0019
603.427	0.0018
603.704	0.0026
603.982	0.0026
604.259	0.002
604.536	0.0025
604.813	0.0022
605.09	0.0016
605.367	0.0009
605.644	0.0017
605.921	0.0009
606.197	0.0001
606.474	0.0025
606.751	0.0012
607.027	0.0009
607.304	0.0016
607.58	0.0016
607.856	0.0014
608.133	0.0025
608.409	0.0019
608.685	0.0016
608.961	0.0012
609.237	0.0015
609.513	0.0021
609.789	0.0009
610.065	0.0001
610.341	0.0009
610.616	0.002
610.892	0.0019
611.167	0.0012
611.443	0.0023
611.718	0.0021
611.994	0.0017
612.269	0.0028
612.544	0.0017
612.819	0.0017
613.095	0.0019
613.37	0.0027
613.645	0.0027
613.919	0.0033
614.194	0.0029
614.469	0.0027
614.744	0.0012
615.019	0.002
615.293	0.0021
615.568	0.0009
615.842	0.0013
616.116	0.0021
616.391	0.0005
616.665	0.0001
616.939	0.0003
617.213	0.0022
617.488	0.0004
617.762	0.0006
618.035	0.0013
618.309	0.0003
618.583	0.0017
618.857	0.0014
619.131	0.0007
619.404	0.0004
619.678	0.0018
619.951	0.0007
620.225	-0.0001
620.498	0.002
620.771	0.0008
621.045	0.0022
621.318	0.0021
621.591	0.0007
621.864	0.0007
622.137	0.0025
622.41	0.0025
622.683	0.002
622.956	0.0001
623.228	-0.0001
623.501	0.0014
623.774	0.0009
624.046	0.001
624.319	0.0012
624.591	0.0005
624.863	0.0011
625.136	0.0009
625.408	0.0017
625.68	-0
625.952	0.0015
626.224	0.0009
626.496	-0
626.768	0.0008
627.04	-0.0006
627.311	-0.001
627.583	0.0003
627.855	0.0008
628.126	0.001
628.398	0.0002
628.669	-0.0008
628.941	-0.001
629.212	-0.0004
629.483	0.0004
629.755	0.0006
630.026	0.0016
630.297	0.001
630.568	-0.0001
630.839	0.0013
631.11	-0.0007
631.38	0
631.651	-0.0003
631.922	0.0001
632.192	0.0011
632.463	0.0011
632.733	0.0008
633.004	0.0008
633.274	0.0006
633.545	0.0005
633.815	0.0009
634.085	0.0007
634.355	0.0012
634.625	0.0008
634.895	0.002
635.165	0.0018
635.435	0.0015
635.705	-0.0005
635.974	-0.0004
636.244	-0.0004
636.514	0.0011
636.783	0.0019
637.053	0.0031
637.322	0.0027
637.591	0.0008
637.861	0.0003
638.13	0.0013
638.399	0.0014
638.668	0.0015
638.937	0.0018
639.206	0.0023
639.475	0.0019
639.744	0.0019
640.013	0.0029
640.281	0.0031
640.55	0.0013
640.819	0.0021
641.087	0.0021
641.356	0.0028
641.624	0.002
641.892	0.001
642.161	0.0014
642.429	0.0014
642.697	0.0016
642.965	0.0023
643.233	0.0015
643.501	0.0014
643.769	0.0012
644.037	0.0018
644.305	0.0015
644.572	0.0011
644.84	-0.0001
645.108	-0.0003
645.375	-0.0019
645.643	-0.0029
645.91	-0.0015
646.177	-0.0012
646.445	-0.0021
646.712	-0.0029
646.979	-0.0016
647.246	-0.0004
647.513	0.0004
647.78	0.0016
648.047	0.0013
648.314	0.0015
648.58	0.0009
648.847	0.0021
649.114	0.0009
649.38	-0.0008
649.647	-0.0003
649.913	-0.0002
650.18	-0.0014
650.446	-0.0006
650.712	-0.0013
650.978	-0.0009
651.245	-0.0009
651.511	-0.0002
651.777	0.0004
652.043	0.0005
652.309	-0.0003
652.574	-0.0004
652.84	-0.0011
653.106	-0.0015
653.371	-0.0005
653.637	-0.0015
653.903	-0.0005
654.168	0.0004
654.433	0.0003
654.699	0.0016
654.964	0.0019
655.229	0.001
655.494	0.0004
655.759	-0.0035
656.024	0.0009
656.289	-0
656.554	0.0093
656.819	0.0042
657.084	0.0021
657.349	-0.0003
657.613	0.0001
657.878	-0.001
658.142	-0.0012
658.407	0.0012
658.671	0.0002
658.936	0.0017
659.2	0.0012
659.464	0.0017
659.728	0.0019
659.992	0.0006
660.256	0.0021
660.52	-0.0001
660.784	0.0004
661.048	0.001
661.312	0.0011
661.575	0
661.839	0.0006
662.103	-0.0003
662.366	0.0002
662.63	-0.0005
662.893	0.0015
663.156	0.0008
663.42	0.0017
663.683	0.0013
663.946	0.0014
664.209	0.0004
664.472	0.0018
664.735	0.0018
664.998	0.0024
665.261	0.0013
665.524	0.0006
665.786	0.0013
666.049	0.002
666.312	0.002
666.574	0.0029
666.837	0.0022
667.099	0.0022
667.361	0.0011
667.624	-0.0007
667.886	0.0005
668.148	0.001
668.41	0.0009
668.672	0.0006
668.934	0.0013
669.196	0.0012
669.458	0.0018
669.72	0.0022
669.982	0.0014
670.243	0.0021
670.505	0.001
670.766	0.0002
671.028	0.0018
671.289	0.0006
671.551	-0.0007
671.812	0.0003
672.073	0.0019
672.334	0.001
672.596	0.002
672.857	0.0028
673.118	0.0034
673.379	0.0026
673.639	0.0025
673.9	0.0014
674.161	0.0012
674.422	0.0013
674.682	0.0012
674.943	0.0021
675.203	0.0027
675.464	0.0015
675.724	0.0022
675.985	0.0019
676.245	0.002
676.505	-0.0001
676.765	0.0002
677.025	0.0004
677.285	0.0004
677.545	-0.0003
677.805	-0.0014
678.065	0.0001
678.325	0.003
678.585	0.0013
678.844	0.0019
679.104	0.0029
679.363	0.0008
679.623	0.0013
679.882	0.0018
680.142	0.002
680.401	0.0024
680.66	0.0014
680.919	0.001
681.178	0.0013
681.437	0.0013
681.696	0.0002
681.955	0.0026
682.214	0.0017
682.473	0.0024
682.732	0.0016
682.99	0.0005
683.249	0.0011
683.508	0.0005
683.766	0.001
684.024	0.0013
684.283	0.0015
684.541	0.001
684.799	0.0015
685.058	0.0018
685.316	0.0012
685.574	0.0006
685.832	0.0007
686.09	0.001
686.348	-0.0002
686.606	-0.0005
686.863	-0
687.121	-0.0009
687.379	-0.0011
687.636	-0.0018
687.894	0.0003
688.151	0.0007
688.409	-0.0001
688.666	0.0002
688.923	-0.0006
689.181	0.0009
689.438	0.0016
689.695	0.0021
689.952	0.0042
690.209	0.0032
690.466	0.0027
690.723	0.0015
690.979	0.0003
691.236	0
691.493	0.0006
691.75	0.0008
692.006	0.0006
692.263	0.0001
692.519	0.0007
692.775	0.0002
693.032	-0.0001
693.288	-0.0003
693.544	-0.0006
693.8	0.0001
694.056	-0
694.313	-0.0004
694.568	0.0007
694.824	-0.0003
695.08	-0.0006
695.336	-0
695.592	-0.0011
695.847	0.0016
696.103	-0.0011
696.359	-0.0009
696.614	-0.0007
696.869	-0.0013
697.125	-0.0019
697.38	0.0009
697.635	0.0005
697.891	0.0005
698.146	-0.0008
698.401	-0.0014
698.656	-0.0021
698.911	-0.0012
699.166	-0.0031
699.42	-0.0022
699.675	-0.0023
699.93	-0.0019
700.185	-0.0012
700.439	0.0002
700.694	0.0003
700.948	-0.0002
701.203	-0.0003
701.457	0.0001
701.711	-0.0009
701.965	-0.0001
702.22	0.0005
702.474	0.0011
702.728	0.0012
702.982	0.0018
703.236	0.0011
703.49	0.0013
703.743	0
703.997	-0.0011
704.251	0.0002
704.504	-0.0004
704.758	0.0003
705.012	-0.0007
705.265	-0.0003
705.518	-0.0003
705.772	-0.0002
706.025	-0.0004
706.278	-0.0011
706.531	-0.0001
706.785	-0.0006
707.038	-0.0009
707.291	0.0008
707.543	-0.001
707.796	0.0013
708.049	-0.0005
708.302	0.0004
708.555	0.0016
708.807	0.0018
709.06	0.0002
709.312	0.0006
709.565	0.0003
709.817	0.0001
710.069	-0.0002
710.322	-0.0014
710.574	-0.0012
710.826	-0.0005
711.078	0.0017
711.33	0.0034
711.582	0.0032
711.834	0.0012
712.086	0.0006
712.338	0.0002
712.59	-0.0011
712.841	-0.0022
713.093	0.0001
713.344	-0.002
713.596	-0.0021
713.847	-0.0011
714.099	-0.0006
714.35	-0.0016
714.601	-0.0028
714.853	-0.002
715.104	-0.0019
715.355	-0.0028
715.606	0.0003
715.857	-0.0009
716.108	-0.001
716.359	-0.002
716.609	-0.0016
716.86	-0.0022
717.111	-0.0027
717.361	-0.0027
717.612	-0.0028
717.863	-0.0024
718.113	-0.0038
718.363	-0.0046
718.614	-0.0016
718.864	-0.0015
719.114	-0.0013
719.364	-0.0022
719.614	-0.0026
719.865	-0.0023
720.114	-0.0038
720.364	-0.0035
720.614	-0.0028
720.864	-0.003
721.114	-0.0006
721.364	-0.0014
721.613	-0.0001
721.863	0.0005
722.112	0.0002
722.362	-0.0018
722.611	-0.0007
722.86	-0.0018
723.11	-0.0032
723.359	-0.0018
723.608	-0.0017
723.857	-0.0019
724.106	-0.0016
724.355	-0.0009
724.604	-0.0014
724.853	-0.0019
725.102	-0.0017
725.351	-0.0012
725.599	-0.0007
725.848	-0.0004
726.097	0.0009
726.345	0.0017
726.594	0.0021
726.842	0.0015
727.09	0
727.339	-0.0012
727.587	-0.0009
727.835	-0.0023
728.083	-0.0016
728.331	-0.0031
728.579	-0.002
728.827	-0
729.075	0.0001
729.323	0.0004
729.571	0.002
729.818	0.001
730.066	0.0011
730.314	0.0007
730.561	0.0004
730.809	-0.0034
731.056	-0.002
731.303	0.0007
731.551	-0.001
731.798	-0.0023
732.045	0
732.292	0.0005
732.539	-0.0005
732.786	-0.0016
733.033	-0.0002
733.28	0.0001
733.527	0.0005
733.774	-0.0014
734.021	0.0001
734.267	-0.0002
734.514	-0.0001
734.76	0.0015
735.007	0.0006
735.253	-0.0011
735.5	0.0006
735.746	-0.0003
735.992	0.0004
736.238	-0.0003
736.485	-0.0021
736.731	-0.0019
736.977	-0.0034
737.223	-0.0018
737.469	-0.002
737.715	-0.0009
737.96	-0.0006
738.206	-0.0002
738.452	0.002
738.697	0.0022
738.943	0.0015
739.189	-0.0002
739.434	0.0008
739.679	0.0017
739.925	0.0013
740.17	-0.0001
740.415	0.0008
740.66	0.0009
740.906	0.0005
741.151	0.001
741.396	0.0007
741.641	0.0004
741.886	-0.0005
742.13	-0.0008
742.375	-0.0006
742.62	-0.0018
742.865	-0.0008
743.109	-0.0012
743.354	-0.0015
743.598	-0.0018
743.843	-0.0021
744.087	-0.0009
744.331	-0.0008
744.576	-0.0004
744.82	-0.0029
745.064	-0.0017
745.308	-0.0028
745.552	-0.0021
745.796	-0.0023
746.04	-0.0016
746.284	-0.0021
746.528	-0.0021
746.771	-0.0026
747.015	-0.0032
747.259	-0.003
747.502	-0.0012
747.746	-0.0002
747.989	-0.0009
748.233	-0.002
748.476	-0.0019
748.719	-0.003
748.963	-0.0023
749.206	-0.001
749.449	-0.0016
749.692	-0.0002
749.935	-0.0001
750.178	-0.0008
750.421	-0.001
750.664	-0.003
750.906	-0.0039
751.149	-0.0041
751.392	-0.0041
751.635	-0.0033
751.877	-0.0017
752.12	-0.0028
752.362	-0.0025
752.604	-0.004
752.847	-0.0023
753.089	-0.0017
753.331	-0.0021
753.573	-0.0032
753.816	-0.0005
754.058	-0.0017
754.3	-0.0009
754.542	-0.0013
754.783	-0.0021
755.025	-0.0029
755.267	-0.0039
755.509	-0.004
755.75	-0.0047
755.992	-0.0034
756.234	-0.0034
756.475	-0.0027
756.716	-0.0025
756.958	-0.0013
757.199	0
757.44	-0.003
757.682	-0.0033
757.923	-0.0009
758.164	-0.0016
758.405	-0.0015
758.646	-0.0012
758.887	-0.0017
759.128	-0.0017
759.369	-0.0035
759.609	-0.0024
759.85	-0.0039
760.091	-0.0021
760.331	-0.0025
760.572	-0.0033
760.812	-0.0032
761.053	-0.0013
761.293	-0.0008
761.533	-0.0013
761.774	0.0006
762.014	-0.0006
762.254	-0.0011
762.494	0.0002
762.734	-0.0011
762.974	-0.0013
763.214	0.0001
763.454	-0.0014
763.694	-0.0021
763.933	0.0005
764.173	-0.0002
764.413	-0.0008
764.652	-0.0011
764.892	-0.0009
765.131	-0.0021
765.371	-0.0016
765.61	-0.002
765.849	-0.0026
766.089	-0.0023
766.328	-0.0028
766.567	-0.0022
766.806	-0.0026
767.045	-0.0004
767.284	-0.0003
767.523	-0
767.762	-0.001
768.001	-0.0023
768.239	-0.002
768.478	-0.0007
768.717	-0.001
768.955	-0.0019
769.194	-0.001
769.432	0.0003
769.671	-0.0005
769.909	-0.0001
770.148	-0.001
770.386	0.0003
770.624	-0.0002
770.862	0.0001
771.1	0.0007
771.338	-0.0002
771.576	0.0007
771.814	0.0008
772.052	-0.0011
772.29	-0.0014
772.528	-0.0012
772.765	0.0002
773.003	0.0005
773.24	0.0006
773.478	0.0008
773.716	0.0008
773.953	0.001
774.19	0.0016
774.428	0.002
774.665	0.0021
774.902	0.0035
775.139	0.0025
775.376	0.0015
775.613	0.0026
775.85	0.0031
776.087	0.0039
776.324	0.0032
776.561	0.0035
776.798	0.0033
777.034	0.0053
777.271	0.0034
777.508	0.0037
777.744	0.0028
777.981	0.0023
778.217	0.0021
778.454	0.0016
778.69	0.0006
778.926	0.0003
779.162	-0.0005
779.399	-0.0017
779.635	-0.0014
779.871	-0.0026
780.107	-0.0017
780.343	-0.0027
780.579	-0.0007
780.814	-0.0012
781.05	-0.0021
781.286	-0.0026
781.522	-0.0006
781.757	0.001
781.993	0.0012
782.228	0.0019
782.464	0.0015
782.699	0.0007
782.934	0.0011
783.17	0.001
783.405	0.0003
783.64	0.0003
783.875	0.0004
784.11	0.0013
784.345	0.0024
784.58	0.0024
784.815	0.003
785.05	0.0021
785.285	0.0016
785.52	0.0009
785.754	0.0017
785.989	0.0006
786.223	0.0015
786.458	0.0015
786.692	0.0021
786.927	0.0025
787.161	0.0011
787.396	0.0026
787.63	0.0037
787.864	0.0025
788.098	0.0027
788.332	0.0019
788.566	0.0013
788.8	0.0016
789.034	0.0012
789.268	0.0028
789.502	0.0028
789.736	0.0035
789.969	0.0024
790.203	0.0022
790.437	0.0009
790.67	0.0009
790.904	0.0002
791.137	0.0001
791.37	0.0004
791.604	-0.001
791.837	-0.001
792.07	-0.0004
792.303	-0.0003
792.537	-0.0022
792.77	-0.0013
793.003	-0.0024
793.236	-0.0022
793.469	0.0001
793.701	0.0004
793.934	-0.0014
794.167	-0.0017
794.4	-0.0009
794.632	0.0006
794.865	0.0003
795.097	-0.0002
795.33	-0.002
795.562	-0.0003
795.795	-0
796.027	-0.0011
796.259	-0.0014
796.491	-0.0026
796.724	-0.0022
796.956	-0.0012
797.188	-0.0007
797.42	-0.0009
797.652	-0.0009
797.883	-0.0013
798.115	-0.0007
798.347	-0.0009
798.579	-0.0014
798.81	-0.0017
799.042	-0.0019
799.274	-0.002
799.505	-0.0002
799.737	-0.0001
799.968	0.0013
800.199	0.0017
800.431	0.0029
800.662	0.0019
800.893	0.0028
801.124	0.0024
801.355	0.0025
801.586	0.0041
801.817	0.0011
802.048	0.0011
802.279	0.0009
802.51	0.0004
802.741	0.0007
802.971	-0.0001
803.202	-0.0004
803.433	-0.0006
803.663	-0.0011
803.894	0.0005
804.124	0.0013
804.354	-0.0005
804.585	-0.0003
804.815	0.0001
805.045	-0.0016
805.275	0.0001
805.506	0.0292
805.736	-0.0974
805.966	0.0139
806.196	-0.0337
