Data from 03 0.5 mM K2Cr2O7 0.3 mM BQDS 1 M H2SO4 5 min_Absorbance_0178.txt Node
Date: Tue Dec 14 08:29:45 EST 2021
User: kwabilab-user
Spectrometer: HDX00518
Trigger mode: 0
Integration Time (sec): 5.000000E-2
Scans to average: 50
Nonlinearity correction enabled: false
Boxcar width: 0
Storing dark spectrum: false
XAxis mode: Wavelengths
Number of Pixels in Spectrum: 2068
>>>>>Begin Spectral Data<<<<<
195.27	0.0896
195.642	0.6198
196.014	0.1249
196.386	0.2804
196.758	-0.0025
197.129	0.0097
197.501	0.0235
197.872	0.0355
198.244	0.0387
198.615	0.0644
198.986	0.0406
199.357	0.0623
199.728	0.0519
200.099	0.0493
200.47	0.0349
200.841	0.0575
201.212	0.055
201.582	0.0792
201.953	0.0682
202.323	0.0636
202.694	0.0531
203.064	0.0405
203.434	0.0761
203.804	0.0452
204.174	0.0522
204.544	0.0583
204.914	0.0494
205.284	0.0522
205.653	0.0335
206.023	0.066
206.393	0.0454
206.762	0.0654
207.131	0.0709
207.501	0.0459
207.87	0.051
208.239	0.0779
208.608	0.0705
208.977	0.0409
209.346	0.0634
209.715	0.0685
210.083	0.0479
210.452	0.0442
210.82	0.07
211.189	0.0651
211.557	0.0735
211.925	0.0309
212.294	0.0578
212.662	0.0806
213.03	0.0413
213.398	0.0627
213.766	0.0596
214.133	0.0651
214.501	0.0671
214.869	0.0793
215.236	0.0529
215.604	0.0539
215.971	0.065
216.338	0.093
216.705	0.0892
217.072	0.1132
217.439	0.0676
217.806	0.1023
218.173	0.0728
218.54	0.0889
218.907	0.0786
219.273	0.101
219.64	0.1004
220.006	0.1269
220.373	0.1206
220.739	0.133
221.105	0.159
221.471	0.1773
221.837	0.1671
222.203	0.1941
222.569	0.224
222.935	0.2394
223.3	0.2576
223.666	0.2844
224.031	0.2887
224.397	0.3075
224.762	0.3286
225.127	0.3709
225.493	0.3776
225.858	0.4082
226.223	0.4179
226.588	0.4564
226.952	0.4747
227.317	0.4838
227.682	0.5054
228.046	0.512
228.411	0.5399
228.775	0.5471
229.14	0.5691
229.504	0.58
229.868	0.59
230.232	0.5749
230.596	0.5995
230.96	0.6319
231.324	0.625
231.688	0.6305
232.052	0.6605
232.415	0.666
232.779	0.6618
233.142	0.6662
233.505	0.6604
233.869	0.6876
234.232	0.6652
234.595	0.6698
234.958	0.6814
235.321	0.6765
235.684	0.682
236.047	0.6733
236.409	0.6649
236.772	0.6802
237.134	0.6693
237.497	0.6725
237.859	0.6783
238.222	0.6715
238.584	0.659
238.946	0.653
239.308	0.6553
239.67	0.6619
240.032	0.6495
240.393	0.6516
240.755	0.6436
241.117	0.6509
241.478	0.6422
241.84	0.6364
242.201	0.6401
242.562	0.6318
242.924	0.6315
243.285	0.6243
243.646	0.6261
244.007	0.6305
244.368	0.6288
244.728	0.623
245.089	0.6222
245.45	0.623
245.81	0.6139
246.171	0.615
246.531	0.6081
246.891	0.6065
247.252	0.6047
247.612	0.6004
247.972	0.6043
248.332	0.6123
248.692	0.6025
249.051	0.6056
249.411	0.6114
249.771	0.5997
250.13	0.5917
250.49	0.5915
250.849	0.5936
251.208	0.5987
251.568	0.5944
251.927	0.5887
252.286	0.5988
252.645	0.5911
253.004	0.5919
253.363	0.5884
253.721	0.589
254.08	0.5904
254.439	0.5861
254.797	0.5844
255.155	0.5842
255.514	0.5824
255.872	0.5842
256.23	0.5802
256.588	0.5825
256.946	0.5788
257.304	0.5769
257.662	0.5789
258.02	0.5772
258.377	0.576
258.735	0.5728
259.093	0.5708
259.45	0.5747
259.807	0.566
260.165	0.567
260.522	0.5714
260.879	0.5636
261.236	0.5661
261.593	0.5622
261.95	0.554
262.306	0.5572
262.663	0.5494
263.02	0.5522
263.376	0.548
263.733	0.5457
264.089	0.5414
264.445	0.5431
264.802	0.54
265.158	0.5413
265.514	0.5364
265.87	0.5282
266.226	0.5303
266.581	0.5304
266.937	0.5233
267.293	0.5233
267.648	0.5182
268.004	0.5177
268.359	0.5101
268.714	0.508
269.07	0.5051
269.425	0.5042
269.78	0.4978
270.135	0.5015
270.49	0.4963
270.844	0.4948
271.199	0.4936
271.554	0.4879
271.908	0.4792
272.263	0.4807
272.617	0.475
272.972	0.4759
273.326	0.4714
273.68	0.4696
274.034	0.4645
274.388	0.4625
274.742	0.4599
275.096	0.4578
275.45	0.4505
275.803	0.4462
276.157	0.4417
276.51	0.4366
276.864	0.4385
277.217	0.431
277.571	0.4305
277.924	0.4256
278.277	0.4221
278.63	0.4191
278.983	0.412
279.336	0.4117
279.688	0.4058
280.041	0.4044
280.394	0.4019
280.746	0.3951
281.099	0.3907
281.451	0.3879
281.803	0.3822
282.156	0.3776
282.508	0.3731
282.86	0.3686
283.212	0.3664
283.564	0.363
283.916	0.3576
284.267	0.3526
284.619	0.3484
284.971	0.3457
285.322	0.3414
285.673	0.3375
286.025	0.3329
286.376	0.3287
286.727	0.3269
287.078	0.3231
287.429	0.3192
287.78	0.3143
288.131	0.311
288.482	0.3049
288.833	0.3012
289.183	0.2979
289.534	0.2932
289.884	0.2904
290.235	0.2858
290.585	0.2821
290.935	0.2778
291.285	0.2723
291.635	0.2703
291.985	0.2676
292.335	0.2643
292.685	0.2619
293.035	0.2565
293.384	0.2535
293.734	0.2502
294.083	0.244
294.433	0.241
294.782	0.2368
295.131	0.2353
295.48	0.2292
295.829	0.2268
296.179	0.2222
296.527	0.2205
296.876	0.2159
297.225	0.2127
297.574	0.2098
297.922	0.2082
298.271	0.2049
298.619	0.201
298.968	0.1977
299.316	0.1943
299.664	0.1923
300.012	0.1893
300.36	0.1869
300.708	0.1832
301.056	0.1808
301.404	0.1781
301.752	0.1775
302.099	0.1736
302.447	0.1712
302.794	0.1696
303.142	0.1679
303.489	0.1646
303.836	0.1638
304.183	0.1614
304.531	0.1601
304.878	0.1573
305.224	0.1564
305.571	0.1543
305.918	0.153
306.265	0.1529
306.611	0.1512
306.958	0.1492
307.304	0.147
307.651	0.1462
307.997	0.145
308.343	0.1444
308.689	0.1434
309.035	0.1421
309.381	0.1417
309.727	0.1413
310.073	0.1411
310.419	0.1403
310.764	0.1392
311.11	0.1388
311.455	0.1384
311.801	0.1383
312.146	0.1377
312.491	0.1376
312.837	0.1367
313.182	0.1376
313.527	0.1363
313.872	0.1377
314.216	0.1368
314.561	0.1374
314.906	0.137
315.251	0.1385
315.595	0.1383
315.94	0.139
316.284	0.1394
316.628	0.1396
316.972	0.1407
317.317	0.1413
317.661	0.1412
318.005	0.1419
318.348	0.1435
318.692	0.1441
319.036	0.1442
319.38	0.1454
319.723	0.1458
320.067	0.148
320.41	0.1479
320.754	0.1494
321.097	0.1505
321.44	0.1513
321.783	0.1523
322.126	0.155
322.469	0.1548
322.812	0.1561
323.155	0.1577
323.498	0.1594
323.84	0.1606
324.183	0.1621
324.525	0.164
324.868	0.1651
325.21	0.1658
325.552	0.1681
325.894	0.1696
326.236	0.1705
326.578	0.1723
326.92	0.1737
327.262	0.1756
327.604	0.1773
327.946	0.1783
328.287	0.1799
328.629	0.1819
328.97	0.1834
329.312	0.185
329.653	0.1865
329.994	0.1884
330.335	0.1895
330.676	0.192
331.017	0.1934
331.358	0.1958
331.699	0.1972
332.04	0.199
332.38	0.2006
332.721	0.2016
333.061	0.2046
333.402	0.2069
333.742	0.2077
334.083	0.2095
334.423	0.21
334.763	0.2123
335.103	0.2136
335.443	0.2153
335.783	0.2163
336.123	0.2179
336.462	0.2195
336.802	0.2222
337.141	0.2217
337.481	0.223
337.82	0.2254
338.16	0.2255
338.499	0.228
338.838	0.229
339.177	0.2313
339.516	0.2322
339.855	0.2331
340.194	0.2339
340.533	0.2352
340.872	0.2368
341.21	0.2378
341.549	0.2385
341.887	0.2392
342.226	0.2404
342.564	0.2411
342.902	0.2425
343.24	0.2425
343.578	0.2426
343.916	0.2442
344.254	0.2446
344.592	0.2439
344.93	0.2455
345.268	0.2449
345.605	0.2459
345.943	0.2462
346.28	0.2469
346.618	0.2466
346.955	0.2473
347.292	0.2476
347.629	0.2477
347.966	0.2471
348.303	0.2478
348.64	0.2484
348.977	0.2486
349.314	0.2489
349.65	0.2488
349.987	0.2494
350.324	0.2503
350.66	0.2483
350.996	0.2479
351.333	0.2479
351.669	0.2471
352.005	0.2471
352.341	0.2459
352.677	0.2452
353.013	0.2446
353.349	0.2436
353.685	0.2433
354.02	0.2412
354.356	0.24
354.691	0.2395
355.027	0.2378
355.362	0.2373
355.697	0.2368
356.033	0.2367
356.368	0.2347
356.703	0.2338
357.038	0.2326
357.373	0.232
357.707	0.2306
358.042	0.2305
358.377	0.2299
358.711	0.2287
359.046	0.2275
359.38	0.226
359.715	0.2251
360.049	0.2238
360.383	0.2232
360.717	0.2217
361.051	0.2208
361.385	0.219
361.719	0.2169
362.053	0.2157
362.387	0.2137
362.72	0.2122
363.054	0.2105
363.387	0.2086
363.721	0.2066
364.054	0.2046
364.387	0.2035
364.721	0.2019
365.054	0.1998
365.387	0.1983
365.72	0.195
366.053	0.1948
366.385	0.1929
366.718	0.1912
367.051	0.1898
367.383	0.1892
367.716	0.1872
368.048	0.1867
368.381	0.1851
368.713	0.1829
369.045	0.1826
369.377	0.1801
369.709	0.1791
370.041	0.1786
370.373	0.1766
370.705	0.1746
371.037	0.173
371.368	0.1708
371.7	0.1709
372.031	0.1683
372.363	0.1658
372.694	0.1631
373.025	0.1618
373.356	0.1601
373.688	0.1583
374.019	0.1551
374.35	0.154
374.68	0.1518
375.011	0.1503
375.342	0.1476
375.673	0.1463
376.003	0.1435
376.334	0.1432
376.664	0.1406
376.995	0.1398
377.325	0.1356
377.655	0.1359
377.985	0.1344
378.315	0.1326
378.645	0.1315
378.975	0.1297
379.305	0.1293
379.635	0.1278
379.964	0.1274
380.294	0.1247
380.623	0.1239
380.953	0.1225
381.282	0.1211
381.611	0.1194
381.941	0.1183
382.27	0.1163
382.599	0.1148
382.928	0.1132
383.257	0.1123
383.585	0.1105
383.914	0.11
384.243	0.1072
384.571	0.1058
384.9	0.1035
385.228	0.1034
385.557	0.1004
385.885	0.0983
386.213	0.0972
386.541	0.0965
386.869	0.0938
387.197	0.092
387.525	0.0908
387.853	0.0893
388.181	0.0881
388.508	0.086
388.836	0.0846
389.164	0.083
389.491	0.0822
389.818	0.0813
390.146	0.0799
390.473	0.0787
390.8	0.0779
391.127	0.0764
391.454	0.0745
391.781	0.0744
392.108	0.0733
392.435	0.0715
392.761	0.0705
393.088	0.0703
393.415	0.0692
393.741	0.0684
394.067	0.0677
394.394	0.0668
394.72	0.065
395.046	0.0647
395.372	0.0642
395.698	0.0637
396.024	0.0623
396.35	0.0619
396.676	0.0605
397.001	0.0597
397.327	0.0584
397.653	0.058
397.978	0.0557
398.303	0.0556
398.629	0.0544
398.954	0.0533
399.279	0.0533
399.604	0.0522
399.929	0.052
400.254	0.051
400.579	0.0508
400.904	0.0497
401.229	0.0493
401.553	0.0486
401.878	0.0482
402.202	0.0471
402.527	0.0468
402.851	0.0471
403.175	0.0459
403.5	0.0454
403.824	0.0451
404.148	0.045
404.472	0.0438
404.796	0.0433
405.119	0.0436
405.443	0.0434
405.767	0.0418
406.09	0.0423
406.414	0.0421
406.737	0.042
407.061	0.0417
407.384	0.0418
407.707	0.0416
408.03	0.0412
408.353	0.041
408.676	0.0409
408.999	0.0404
409.322	0.0404
409.645	0.0398
409.968	0.0402
410.29	0.0397
410.613	0.0403
410.935	0.0397
411.258	0.0399
411.58	0.0392
411.902	0.0395
412.224	0.0393
412.546	0.0388
412.868	0.0385
413.19	0.0393
413.512	0.039
413.834	0.0378
414.156	0.0389
414.477	0.0389
414.799	0.0384
415.121	0.0388
415.442	0.0391
415.763	0.0385
416.085	0.0394
416.406	0.0393
416.727	0.0388
417.048	0.0386
417.369	0.0381
417.69	0.0381
418.011	0.0377
418.331	0.0386
418.652	0.0388
418.973	0.0387
419.293	0.0389
419.614	0.0392
419.934	0.0391
420.254	0.0391
420.574	0.0385
420.895	0.0394
421.215	0.0389
421.535	0.0386
421.855	0.0388
422.174	0.0384
422.494	0.038
422.814	0.0382
423.134	0.0385
423.453	0.0386
423.773	0.0386
424.092	0.0386
424.411	0.0383
424.731	0.0387
425.05	0.0383
425.369	0.0381
425.688	0.0384
426.007	0.0385
426.326	0.0386
426.644	0.0381
426.963	0.0395
427.282	0.0389
427.6	0.039
427.919	0.0384
428.237	0.0383
428.556	0.0388
428.874	0.0391
429.192	0.0391
429.51	0.0397
429.828	0.039
430.146	0.0393
430.464	0.0383
430.782	0.0385
431.1	0.0393
431.418	0.0387
431.735	0.0387
432.053	0.0396
432.37	0.0391
432.688	0.0385
433.005	0.0389
433.322	0.0396
433.639	0.0389
433.957	0.0399
434.274	0.0392
434.591	0.0387
434.907	0.039
435.224	0.0395
435.541	0.0391
435.858	0.0399
436.174	0.0404
436.491	0.0391
436.807	0.0382
437.124	0.0391
437.44	0.0389
437.756	0.0393
438.072	0.0392
438.388	0.0394
438.704	0.0382
439.02	0.0392
439.336	0.0386
439.652	0.0381
439.968	0.0377
440.283	0.0379
440.599	0.0378
440.914	0.0385
441.23	0.039
441.545	0.0382
441.86	0.0375
442.175	0.0378
442.491	0.0378
442.806	0.0378
443.121	0.0376
443.435	0.0378
443.75	0.0379
444.065	0.0381
444.38	0.0374
444.694	0.0381
445.009	0.0377
445.323	0.0379
445.638	0.0367
445.952	0.0376
446.266	0.0383
446.58	0.0373
446.894	0.037
447.208	0.0373
447.522	0.0377
447.836	0.0372
448.15	0.0359
448.464	0.0368
448.777	0.037
449.091	0.0365
449.404	0.0365
449.718	0.0363
450.031	0.0364
450.345	0.0361
450.658	0.0367
450.971	0.0358
451.284	0.0357
451.597	0.0351
451.91	0.0358
452.223	0.0351
452.535	0.0353
452.848	0.0355
453.161	0.0346
453.473	0.0351
453.786	0.0345
454.098	0.0352
454.411	0.0351
454.723	0.034
455.035	0.0338
455.347	0.0332
455.659	0.0339
455.971	0.0346
456.283	0.033
456.595	0.0329
456.907	0.0335
457.218	0.0331
457.53	0.0322
457.841	0.0334
458.153	0.0328
458.464	0.0326
458.776	0.0327
459.087	0.032
459.398	0.0326
459.709	0.0323
460.02	0.032
460.331	0.0308
460.642	0.0319
460.953	0.0308
461.263	0.0307
461.574	0.0303
461.885	0.0312
462.195	0.0299
462.506	0.0302
462.816	0.03
463.126	0.0304
463.437	0.0298
463.747	0.0294
464.057	0.0298
464.367	0.0297
464.677	0.0288
464.987	0.0283
465.296	0.0286
465.606	0.0269
465.916	0.028
466.225	0.0279
466.535	0.0279
466.844	0.0276
467.154	0.0272
467.463	0.0275
467.772	0.027
468.081	0.0274
468.39	0.0266
468.699	0.0271
469.008	0.0261
469.317	0.0257
469.626	0.0249
469.935	0.0249
470.243	0.0251
470.552	0.0252
470.86	0.0246
471.169	0.0251
471.477	0.025
471.785	0.0246
472.093	0.0251
472.402	0.0239
472.71	0.0239
473.018	0.0228
473.326	0.0233
473.633	0.0236
473.941	0.0233
474.249	0.0231
474.556	0.024
474.864	0.0232
475.171	0.022
475.479	0.021
475.786	0.0212
476.094	0.0223
476.401	0.0209
476.708	0.0213
477.015	0.0211
477.322	0.0212
477.629	0.0203
477.936	0.0211
478.242	0.0202
478.549	0.0198
478.856	0.0205
479.162	0.02
479.469	0.0195
479.775	0.0204
480.081	0.0193
480.388	0.0191
480.694	0.0195
481	0.0181
481.306	0.0185
481.612	0.0186
481.918	0.0183
482.224	0.0174
482.53	0.0178
482.835	0.0179
483.141	0.0176
483.446	0.0179
483.752	0.017
484.057	0.0166
484.363	0.016
484.668	0.0163
484.973	0.0153
485.278	0.0156
485.583	0.0151
485.888	0.0157
486.193	0.0143
486.498	0.014
486.803	0.0145
487.107	0.0147
487.412	0.0142
487.717	0.0138
488.021	0.0141
488.325	0.0148
488.63	0.0152
488.934	0.0147
489.238	0.0143
489.542	0.0124
489.846	0.0132
490.15	0.0131
490.454	0.0133
490.758	0.0124
491.062	0.0125
491.366	0.0128
491.669	0.0123
491.973	0.013
492.276	0.0113
492.58	0.0122
492.883	0.0114
493.186	0.0113
493.489	0.0112
493.792	0.0107
494.096	0.0105
494.399	0.0096
494.701	0.0111
495.004	0.0096
495.307	0.0104
495.61	0.009
495.912	0.0095
496.215	0.0092
496.517	0.0083
496.82	0.0087
497.122	0.0085
497.424	0.0085
497.727	0.0088
498.029	0.0079
498.331	0.0085
498.633	0.009
498.935	0.0086
499.237	0.0073
499.538	0.008
499.84	0.0075
500.142	0.0074
500.443	0.0067
500.745	0.0074
501.046	0.0062
501.348	0.0071
501.649	0.0059
501.95	0.0061
502.251	0.006
502.552	0.0055
502.853	0.0063
503.154	0.0051
503.455	0.0064
503.756	0.0052
504.057	0.0065
504.357	0.005
504.658	0.0056
504.958	0.0057
505.259	0.0049
505.559	0.0053
505.859	0.0051
506.16	0.0039
506.46	0.0057
506.76	0.0044
507.06	0.0055
507.36	0.0047
507.66	0.0044
507.96	0.0056
508.259	0.0032
508.559	0.0043
508.859	0.0043
509.158	0.0039
509.457	0.0033
509.757	0.0035
510.056	0.0036
510.355	0.0032
510.655	0.0023
510.954	0.0033
511.253	0.0031
511.552	0.0028
511.851	0.0028
512.149	0.0014
512.448	0.003
512.747	0.0025
513.045	0.0028
513.344	0.002
513.642	0.0021
513.941	0.0022
514.239	0.0021
514.537	0.0016
514.836	0.002
515.134	0.0004
515.432	0.0033
515.73	0.0021
516.028	0.0015
516.326	0.0028
516.623	0.0014
516.921	-0.0004
517.219	0.0009
517.516	0.0014
517.814	0.0009
518.111	0.0013
518.409	-0
518.706	0.0019
519.003	0.0009
519.3	0.0014
519.597	0.0008
519.894	0.0006
520.191	0.0008
520.488	0.0008
520.785	0.0007
521.082	0.0013
521.378	-0.0005
521.675	-0
521.971	0.0002
522.268	0.001
522.564	0.0011
522.861	0.0008
523.157	0.0016
523.453	0.0013
523.749	0
524.045	0.0006
524.341	0.001
524.637	0.0001
524.933	0.0003
525.229	0.0001
525.524	-0.0004
525.82	-0.0002
526.115	-0.0003
526.411	0.0002
526.706	0.0004
527.002	0.0007
527.297	-0.0009
527.592	0.0007
527.887	0.0009
528.182	0.0007
528.477	0.0005
528.772	0.0001
529.067	-0.0003
529.362	-0.001
529.657	0.0008
529.951	0.0002
530.246	-0.0009
530.54	0.0001
530.835	-0.001
531.129	-0.0008
531.423	0.0003
531.718	-0.0001
532.012	0.0007
532.306	0.0004
532.6	-0.0005
532.894	-0.0002
533.188	-0.0001
533.482	-0.0004
533.775	-0.0004
534.069	-0.0008
534.363	-0.0019
534.656	-0.0019
534.95	0.0007
535.243	-0.0007
535.536	-0.0012
535.83	-0.002
536.123	-0.0004
536.416	-0.0013
536.709	-0.0013
537.002	-0.0023
537.295	-0.0012
537.588	-0.0015
537.881	-0.0014
538.173	-0.0007
538.466	-0.0017
538.759	-0.001
539.051	-0.0005
539.344	-0.0011
539.636	-0.0012
539.928	-0.0013
540.22	-0.0002
540.513	-0.0011
540.805	-0.0001
541.097	-0.0015
541.389	-0.0002
541.681	0.0002
541.972	0.0004
542.264	0.0001
542.556	-0
542.847	0.001
543.139	0.0002
543.431	-0.0007
543.722	-0.001
544.013	0.001
544.305	-0.001
544.596	-0.0015
544.887	-0.0006
545.178	-0.0003
545.469	-0.0014
545.76	-0.0017
546.051	0.0009
546.342	-0.0002
546.632	-0.0011
546.923	-0.001
547.214	-0.0018
547.504	-0.0017
547.795	-0.0019
548.085	-0.0019
548.375	-0.0009
548.666	-0.0018
548.956	-0.0005
549.246	-0.0007
549.536	-0
549.826	-0.0002
550.116	0.0006
550.406	-0.0004
550.695	-0.0022
550.985	-0.0005
551.275	-0.0016
551.564	-0.0003
551.854	0.0001
552.143	-0.0014
552.433	-0.0016
552.722	-0.0022
553.011	0.0002
553.3	-0.0005
553.589	0.0006
553.879	-0.0008
554.167	-0.0001
554.456	0.0002
554.745	0.0004
555.034	-0.0006
555.323	0.0001
555.611	-0.0005
555.9	-0.0002
556.188	-0.0016
556.477	-0.0001
556.765	-0.0015
557.053	-0.001
557.342	0.0003
557.63	-0.0002
557.918	0.0007
558.206	0.001
558.494	0.0013
558.782	0.0009
559.069	0.0023
559.357	0.0016
559.645	0.001
559.932	0.0003
560.22	-0.0001
560.507	-0.0011
560.795	-0.0014
561.082	-0.0023
561.37	-0.0005
561.657	-0.0016
561.944	-0.0009
562.231	-0.0009
562.518	-0.0001
562.805	-0
563.092	0.0001
563.379	0.0004
563.665	0.0005
563.952	0.0004
564.239	0.0005
564.525	0.0009
564.811	0.0013
565.098	0.0007
565.384	0.0006
565.67	0.0016
565.957	0.001
566.243	0.0022
566.529	0.0011
566.815	0.0006
567.101	0.0013
567.387	0.0015
567.672	0.0012
567.958	0.0012
568.244	0.0011
568.529	0.0008
568.815	-0.0007
569.1	-0.0007
569.386	-0.0015
569.671	0.0003
569.956	-0.0004
570.242	-0
570.527	-0.0005
570.812	0.0001
571.097	0
571.382	-0.0006
571.666	0.0004
571.951	-0.0008
572.236	-0.0009
572.521	-0.0001
572.805	0.0006
573.09	-0.0002
573.374	-0.0015
573.659	-0.0008
573.943	-0.0004
574.227	-0.0006
574.511	-0.0012
574.795	-0.0004
575.079	-0.0003
575.363	-0.0011
575.647	-0.0007
575.931	0.0003
576.215	-0.0012
576.499	-0.0008
576.782	-0.0006
577.066	-0.0009
577.349	0.0002
577.633	-0.0009
577.916	-0.0013
578.2	-0.0016
578.483	-0.0011
578.766	-0.0005
579.049	-0.0007
579.332	0.0004
579.615	0.0004
579.898	-0.0002
580.181	0.0004
580.464	0.0009
580.746	-0.0005
581.029	-0.0005
581.312	-0.0012
581.594	-0.0013
581.877	-0.0014
582.159	-0.0015
582.441	-0.0016
582.724	-0.0008
583.006	0.0004
583.288	-0.0005
583.57	0.0001
583.852	-0
584.134	-0.0001
584.416	-0.0004
584.697	-0.0007
584.979	-0.0021
585.261	-0.0026
585.542	-0.0025
585.824	-0.0016
586.105	-0.0015
586.387	-0.0011
586.668	-0.0014
586.949	-0.0002
587.231	0.0006
587.512	-0.0005
587.793	-0.0003
588.074	-0.0014
588.355	-0.0005
588.636	-0.0011
588.916	-0.0011
589.197	-0.0001
589.478	0
589.758	-0
590.039	0.0002
590.319	0.0001
590.6	0.0004
590.88	0.0003
591.16	0.0007
591.441	0.0008
591.721	0.0008
592.001	-0.0001
592.281	-0.0003
592.561	0.0003
592.841	-0.0012
593.12	-0.0026
593.4	-0.0018
593.68	-0.0018
593.959	-0.0014
594.239	-0.0009
594.518	-0.0003
594.798	0.0005
595.077	-0.0005
595.356	-0.0001
595.636	-0.001
595.915	-0.0006
596.194	0.0004
596.473	0.0005
596.752	0.0011
597.031	0.0004
597.31	-0.0001
597.588	-0.0011
597.867	-0.0001
598.146	-0.0008
598.424	-0.0009
598.703	0.0002
598.981	-0.0015
599.259	-0.0016
599.538	-0.0006
599.816	0.0001
600.094	-0.0013
600.372	-0.0022
600.65	-0.0016
600.928	-0.0003
601.206	-0.0007
601.484	-0.0001
601.762	0.0005
602.04	0.0003
602.317	0.0003
602.595	-0.0001
602.872	0.0004
603.15	0.0008
603.427	-0.001
603.704	-0.0014
603.982	-0.0004
604.259	-0.0006
604.536	-0.0001
604.813	-0.0009
605.09	-0.0004
605.367	-0.0005
605.644	-0.0015
605.921	-0.0008
606.197	-0.0015
606.474	-0.0005
606.751	-0.0014
607.027	-0.0014
607.304	-0.0007
607.58	-0.0014
607.856	-0.0009
608.133	-0.0012
608.409	-0.0003
608.685	-0.0006
608.961	-0.0006
609.237	-0.0004
609.513	-0.0004
609.789	-0.0001
610.065	0.0001
610.341	-0.0007
610.616	-0.0001
610.892	0.0007
611.167	0.0014
611.443	0.0009
611.718	0.001
611.994	0.0009
612.269	0.0001
612.544	0.0004
612.819	0.0001
613.095	-0.0004
613.37	0.0003
613.645	-0.0004
613.919	-0.0007
614.194	0.0002
614.469	0.0009
614.744	-0.0003
615.019	-0.0015
615.293	-0.0013
615.568	-0.0005
615.842	-0.0003
616.116	0.0012
616.391	0.0024
616.665	0.0013
616.939	0.0008
617.213	0.0014
617.488	0.0019
617.762	0.0002
618.035	0.0002
618.309	-0.0001
618.583	0.0006
618.857	0.0023
619.131	0.0021
619.404	0.0014
619.678	0.0023
619.951	0.0003
620.225	0
620.498	0.0006
620.771	0.0007
621.045	0.0003
621.318	0.0005
621.591	-0.0014
621.864	-0.0006
622.137	-0.0007
622.41	-0.0008
622.683	0.0004
622.956	0.0004
623.228	0.0005
623.501	0.0016
623.774	0.0012
624.046	0.0016
624.319	0.0004
624.591	-0.0008
624.863	0.0005
625.136	0.0015
625.408	0.0013
625.68	0.0016
625.952	0.0021
626.224	0.0026
626.496	0.0023
626.768	0.0022
627.04	0.0009
627.311	0.0008
627.583	0.0006
627.855	0.0019
628.126	0.002
628.398	0.003
628.669	0.0036
628.941	0.0032
629.212	0.002
629.483	0.0017
629.755	0.0016
630.026	0.0026
630.297	0.0036
630.568	0.0026
630.839	0.0031
631.11	0.002
631.38	0.003
631.651	0.0037
631.922	0.0024
632.192	0.0022
632.463	0.0025
632.733	0.0021
633.004	0.0023
633.274	0.0028
633.545	0.0034
633.815	0.0026
634.085	0.0012
634.355	-0.0001
634.625	-0
634.895	0.0011
635.165	0.0015
635.435	0.0005
635.705	0.0001
635.974	0.0004
636.244	0.0022
636.514	0.002
636.783	0.0011
637.053	0.0014
637.322	0.0026
637.591	0.0028
637.861	0.0004
638.13	0.001
638.399	0.001
638.668	0.0016
638.937	0.0002
639.206	-0.0004
639.475	0.0002
639.744	0.0014
640.013	0.0019
640.281	0.0021
640.55	0.0025
640.819	0.0019
641.087	0.0019
641.356	0.0021
641.624	0.005
641.892	0.0036
642.161	0.004
642.429	0.0022
642.697	0.0034
642.965	0.0024
643.233	0.0014
643.501	0.0009
643.769	0.0019
644.037	0.0018
644.305	0.002
644.572	0.0015
644.84	0.0006
645.108	0.0005
645.375	0.0001
645.643	0.0005
645.91	0.0021
646.177	0.002
646.445	0.0026
646.712	0.0031
646.979	0.005
647.246	0.004
647.513	0.0039
647.78	0.0037
648.047	0.0027
648.314	0.0005
648.58	0.0004
648.847	0.0015
649.114	0.0024
649.38	0.0014
649.647	0.0013
649.913	0.0015
650.18	0.0021
650.446	0.0024
650.712	0.0022
650.978	0.0016
651.245	0.0012
651.511	0.0013
651.777	0.0011
652.043	0.0017
652.309	0.0025
652.574	0.003
652.84	0.0028
653.106	0.0023
653.371	0.0027
653.637	0.0033
653.903	0.0035
654.168	0.0044
654.433	0.006
654.699	0.006
654.964	0.0059
655.229	0.0038
655.494	0.0019
655.759	-0.0039
656.024	-0.0002
656.289	-0
656.554	-0.0013
656.819	-0.0001
657.084	0.0021
657.349	0.0019
657.613	0.0018
657.878	0.0017
658.142	0.0011
658.407	0.0017
658.671	0.0017
658.936	0.0021
659.2	0.0024
659.464	0.003
659.728	0.0028
659.992	0.0024
660.256	0.0023
660.52	0.0019
660.784	0.0007
661.048	0.0019
661.312	0.0022
661.575	0.0028
661.839	0.003
662.103	0.0023
662.366	0.0019
662.63	0.0018
662.893	0.0015
663.156	0.0006
663.42	-0.0001
663.683	-0.0006
663.946	-0.0005
664.209	-0.0003
664.472	-0.0016
664.735	-0.0001
664.998	0
665.261	0.0006
665.524	0.0009
665.786	0.0007
666.049	0.0012
666.312	0.0008
666.574	0.0011
666.837	0.0019
667.099	0.0018
667.361	0.0019
667.624	0.0015
667.886	0.0004
668.148	0.0007
668.41	0.0006
668.672	-0.0001
668.934	0.0018
669.196	0.0003
669.458	0.0013
669.72	0.002
669.982	0.002
670.243	0.0026
670.505	0.0014
670.766	0.0017
671.028	0.0018
671.289	0.0001
671.551	0.0006
671.812	-0.0013
672.073	0.0009
672.334	0.0003
672.596	-0.0001
672.857	0.0004
673.118	0.0004
673.379	0.0008
673.639	0.0005
673.9	0.0009
674.161	0.0007
674.422	-0.0002
674.682	0.0009
674.943	0.0006
675.203	0.001
675.464	0.0006
675.724	-0.0012
675.985	-0.0002
676.245	-0.0007
676.505	-0.0001
676.765	-0.0007
677.025	0.0003
677.285	0.0011
677.545	0.0014
677.805	0.0005
678.065	0.0011
678.325	0.0012
678.585	0.0008
678.844	-0
679.104	0.0005
679.363	-0.0011
679.623	-0.0009
679.882	-0.0003
680.142	0.0013
680.401	0.0003
680.66	0.0025
680.919	0.0034
681.178	0.0035
681.437	0.0023
681.696	0.0011
681.955	0.0016
682.214	0.0015
682.473	0.0002
682.732	-0.0004
682.99	0.0011
683.249	0.0024
683.508	0.0011
683.766	-0.0002
684.024	-0.0001
684.283	0.0014
684.541	0.0003
684.799	0.0005
685.058	0.0016
685.316	-0.0005
685.574	-0.0012
685.832	-0.0012
686.09	-0.0006
686.348	-0.0014
686.606	-0.0009
686.863	-0.0007
687.121	0.0016
687.379	0.0022
687.636	0.0006
687.894	0.0027
688.151	0.0021
688.409	0.0015
688.666	0.0011
688.923	-0.0005
689.181	0.0005
689.438	0.001
689.695	0
689.952	-0.0013
690.209	-0.0003
690.466	-0
690.723	0.0016
690.979	0.0008
691.236	0.0002
691.493	0.0012
691.75	0.0017
692.006	0.0015
692.263	0.0002
692.519	0.0008
692.775	0.0012
693.032	0.0003
693.288	0.0011
693.544	0.0012
693.8	0.0015
694.056	0.001
694.313	0.0008
694.568	0.001
694.824	0.0007
695.08	0.0005
695.336	-0.0012
695.592	-0.0027
695.847	-0
696.103	0.0007
696.359	0.0009
696.614	0.0008
696.869	-0.0008
697.125	-0.0032
697.38	-0.0017
697.635	-0.0004
697.891	0.0001
698.146	0.0012
698.401	0.0007
698.656	0.0007
698.911	0.0016
699.166	0.0019
699.42	0.0032
699.675	0.0026
699.93	0.0019
700.185	0.0015
700.439	0.0016
700.694	0.0016
700.948	0.001
701.203	0.0005
701.457	0.0001
701.711	0.0003
701.965	-0.0005
702.22	-0.0008
702.474	-0.0011
702.728	-0.001
702.982	-0.0014
703.236	-0.0005
703.49	0.0007
703.743	0.0006
703.997	-0.0002
704.251	0.0003
704.504	0.0008
704.758	-0.0004
705.012	0.0014
705.265	0.0012
705.518	0.0028
705.772	0.0024
706.025	0.0024
706.278	0.0012
706.531	-0
706.785	-0.0009
707.038	-0.0016
707.291	-0.0011
707.543	-0.0003
707.796	-0.0011
708.049	-0.0008
708.302	-0.0031
708.555	-0.0025
708.807	-0.002
709.06	-0.0027
709.312	-0.0016
709.565	-0.0017
709.817	-0.002
710.069	-0.0024
710.322	-0.0026
710.574	-0.0028
710.826	-0.0028
711.078	-0.0018
711.33	-0.0015
711.582	-0.0023
711.834	-0.0016
712.086	-0.0026
712.338	-0.0025
712.59	-0.0022
712.841	-0.0038
713.093	-0.0027
713.344	-0.0031
713.596	-0.0029
713.847	-0.0012
714.099	-0.0015
714.35	-0.002
714.601	-0.0015
714.853	-0.0006
715.104	-0.0007
715.355	-0.0005
715.606	-0.0006
715.857	0.0003
716.108	-0.0006
716.359	-0.0005
716.609	-0.0008
716.86	-0.0004
717.111	-0.0005
717.361	-0.0005
717.612	0.0012
717.863	0.001
718.113	0.0025
718.363	0.0005
718.614	0.0023
718.864	0.003
719.114	0.0027
719.364	0.0034
719.614	0.002
719.865	0.0033
720.114	0.0041
720.364	0.0039
720.614	0.0045
720.864	0.0029
721.114	0.0028
721.364	0.0028
721.613	0.002
721.863	0.0008
722.112	0.0014
722.362	0.0004
722.611	0.0002
722.86	0.0005
723.11	0.0006
723.359	0
723.608	-0.0004
723.857	0.0007
724.106	0.0009
724.355	0.0015
724.604	0.0017
724.853	0.0011
725.102	0
725.351	0.0003
725.599	-0.0007
725.848	-0
726.097	0.0008
726.345	-0.0001
726.594	-0.0009
726.842	-0.0004
727.09	-0.002
727.339	-0.0021
727.587	-0.003
727.835	-0.0028
728.083	-0.0021
728.331	-0.002
728.579	-0.0011
728.827	0.0001
729.075	0.0002
729.323	0
729.571	0.0002
729.818	0.0003
730.066	-0
730.314	0.0003
730.561	0.0014
730.809	0.0011
731.056	-0.0002
731.303	0.0015
731.551	0.0011
731.798	0.0006
732.045	0.0006
732.292	0.0024
732.539	0.0023
732.786	0.0018
733.033	0.001
733.28	0.0013
733.527	0.0011
733.774	0.0004
734.021	-0.0021
734.267	-0.0016
734.514	-0.0019
734.76	-0.0023
735.007	-0.0014
735.253	-0.0011
735.5	-0.0015
735.746	-0.0018
735.992	-0.001
736.238	-0.0004
736.485	0.0005
736.731	0.0014
736.977	0.0003
737.223	0.0006
737.469	0.001
737.715	0.0023
737.96	0.0017
738.206	0.0008
738.452	0.0016
738.697	0.0005
738.943	-0.0002
739.189	-0.0004
739.434	-0.0003
739.679	-0.0007
739.925	-0.0001
740.17	-0.0009
740.415	-0.0008
740.66	-0.0016
740.906	-0.0022
741.151	-0.0017
741.396	-0.0022
741.641	-0.0019
741.886	-0.0019
742.13	-0.0006
742.375	0.0001
742.62	-0.0009
742.865	-0.0013
743.109	0.0004
743.354	0.0012
743.598	0.0021
743.843	0.0032
744.087	0.0023
744.331	0.004
744.576	0.0044
744.82	0.0055
745.064	0.0054
745.308	0.0061
745.552	0.0054
745.796	0.0039
746.04	0.0041
746.284	0.0024
746.528	0.0038
746.771	0.0051
747.015	0.0054
747.259	0.0038
747.502	0.0027
747.746	0.0024
747.989	0.0039
748.233	0.0029
748.476	0.0051
748.719	0.0044
748.963	0.0057
749.206	0.0053
749.449	0.0032
749.692	0.0039
749.935	0.0042
750.178	0.0028
750.421	0.0023
750.664	0.0029
750.906	0.0039
751.149	0.0045
751.392	0.0041
751.635	0.0027
751.877	0.0029
752.12	0.0019
752.362	0.0019
752.604	0.0026
752.847	0.0036
753.089	0.0041
753.331	0.0053
753.573	0.0045
753.816	0.0029
754.058	0.0011
754.3	-0.0004
754.542	0.0008
754.783	-0.001
755.025	-0.0009
755.267	-0.0002
755.509	-0.0012
755.75	-0.0008
755.992	-0
756.234	-0.0005
756.475	-0.0003
756.716	-0.0016
756.958	-0.0018
757.199	-0.0011
757.44	-0.0001
757.682	-0.0011
757.923	0.0001
758.164	0.0021
758.405	0.0018
758.646	0.004
758.887	0.0036
759.128	0.0034
759.369	0.0031
759.609	0.0029
759.85	0.0032
760.091	0.0033
760.331	0.003
760.572	0.0007
760.812	-0.0005
761.053	-0.0005
761.293	0.0001
761.533	0.0002
761.774	0.0032
762.014	0.0024
762.254	0.0023
762.494	0.0013
762.734	0.0013
762.974	0.0005
763.214	0.001
763.454	0.0013
763.694	0.0002
763.933	-0.0013
764.173	-0.0026
764.413	-0.0037
764.652	-0.0041
764.892	-0.0031
765.131	-0.0024
765.371	-0.0019
765.61	-0.0021
765.849	-0.0017
766.089	-0.0012
766.328	0
766.567	-0.0007
766.806	-0.0011
767.045	-0.0001
767.284	-0.001
767.523	-0.0012
767.762	-0.0022
768.001	-0.0022
768.239	-0.0022
768.478	-0.0018
768.717	-0.0012
768.955	-0.0012
769.194	-0.0012
769.432	0.0008
769.671	0.0011
769.909	0.0014
770.148	0.0015
770.386	0.0025
770.624	0.0037
770.862	0.0042
771.1	0.0045
771.338	0.0034
771.576	0.0024
771.814	0.004
772.052	0.004
772.29	0.0052
772.528	0.0062
772.765	0.0071
773.003	0.0065
773.24	0.0072
773.478	0.0052
773.716	0.0052
773.953	0.0042
774.19	0.0046
774.428	0.0056
774.665	0.0057
774.902	0.0067
775.139	0.0063
775.376	0.0047
775.613	0.0049
775.85	0.0035
776.087	0.003
776.324	0.0033
776.561	0.0027
776.798	0.0019
777.034	0.0018
777.271	0.0027
777.508	0.0032
777.744	0.0042
777.981	0.0052
778.217	0.0047
778.454	0.0044
778.69	0.0035
778.926	0.003
779.162	0.0035
779.399	0.003
779.635	0.0029
779.871	0.0032
780.107	0.0037
780.343	0.0029
780.579	0.0024
780.814	0.0032
781.05	0.0031
781.286	0.0012
781.522	0.002
781.757	0.0026
781.993	0.0024
782.228	0.0019
782.464	0.0031
782.699	0.0013
782.934	0.001
783.17	0.002
783.405	0.0019
783.64	0.0014
783.875	0.0008
784.11	0.0007
784.345	0.002
784.58	0.0032
784.815	0.0043
785.05	0.0026
785.285	0.001
785.52	0.0011
785.754	0
785.989	0.0001
786.223	-0.0018
786.458	-0.0008
786.692	-0.0008
786.927	0.0002
787.161	0.0006
787.396	0.0001
787.63	0.0003
787.864	-0.0013
788.098	-0.002
788.332	-0.0027
788.566	-0.0023
788.8	-0.0023
789.034	-0.0018
789.268	-0.0012
789.502	0
789.736	-0.0003
789.969	0.0008
790.203	0
790.437	-0.0011
790.67	-0.0022
790.904	-0.0021
791.137	-0.0023
791.37	-0.0025
791.604	-0.005
791.837	-0.0044
792.07	-0.0036
792.303	-0.0034
792.537	-0.003
792.77	-0.003
793.003	-0.0023
793.236	-0.0022
793.469	-0.002
793.701	-0.0006
793.934	0.0002
794.167	0
794.4	-0.0006
794.632	0.0009
794.865	0.0018
795.097	0.0023
795.33	-0.0001
795.562	0.0011
795.795	0.0022
796.027	0.003
796.259	0.0022
796.491	0.0022
796.724	0.0018
796.956	0.0034
797.188	0.0021
797.42	0.0021
797.652	0.002
797.883	0.0025
798.115	0.0035
798.347	0.0033
798.579	0.005
798.81	0.0051
799.042	0.0051
799.274	0.0038
799.505	0.0029
799.737	0.004
799.968	0.003
800.199	0.0022
800.431	0.0012
800.662	0.0014
800.893	0.0017
801.124	0.0019
801.355	0.0017
801.586	0.0023
801.817	0.0012
802.048	-0.0002
802.279	-0.0002
802.51	0.0011
802.741	0.0024
802.971	0.0019
803.202	0.0018
803.433	0.0023
803.663	0.0008
803.894	0.001
804.124	0.0002
804.354	0.0013
804.585	0.0011
804.815	0.0016
805.045	0.0008
805.275	0.0018
805.506	-0.0481
805.736	0.0104
805.966	0.0934
806.196	0.0667
