Data from 03 0.5 mM K2Cr2O7 0.3 mM BQDS 1 M H2SO4 5 min_Absorbance_0039.txt Node
Date: Mon Dec 13 20:54:45 EST 2021
User: kwabilab-user
Spectrometer: HDX00518
Trigger mode: 0
Integration Time (sec): 5.000000E-2
Scans to average: 50
Nonlinearity correction enabled: false
Boxcar width: 0
Storing dark spectrum: false
XAxis mode: Wavelengths
Number of Pixels in Spectrum: 2068
>>>>>Begin Spectral Data<<<<<
195.27	0.0504
195.642	0.0669
196.014	0.0867
196.386	0.1525
196.758	0.0153
197.129	0.0106
197.501	0.0064
197.872	0.025
198.244	0.0423
198.615	0.0715
198.986	0.0435
199.357	0.0676
199.728	0.0482
200.099	0.0673
200.47	0.042
200.841	0.0508
201.212	0.0669
201.582	0.0611
201.953	0.0711
202.323	0.075
202.694	0.0584
203.064	0.0455
203.434	0.067
203.804	0.0321
204.174	0.0674
204.544	0.0652
204.914	0.0658
205.284	0.0657
205.653	0.0573
206.023	0.0559
206.393	0.0539
206.762	0.0686
207.131	0.0495
207.501	0.0475
207.87	0.0955
208.239	0.0751
208.608	0.0665
208.977	0.0562
209.346	0.0637
209.715	0.0365
210.083	0.0629
210.452	0.0522
210.82	0.061
211.189	0.0426
211.557	0.0684
211.925	0.0432
212.294	0.0582
212.662	0.0631
213.03	0.08
213.398	0.0887
213.766	0.0977
214.133	0.058
214.501	0.0768
214.869	0.0946
215.236	0.0656
215.604	0.0806
215.971	0.0723
216.338	0.0943
216.705	0.0904
217.072	0.1194
217.439	0.0775
217.806	0.1016
218.173	0.106
218.54	0.0978
218.907	0.1155
219.273	0.1188
219.64	0.1146
220.006	0.1133
220.373	0.1397
220.739	0.1567
221.105	0.1561
221.471	0.1732
221.837	0.1729
222.203	0.2179
222.569	0.2208
222.935	0.2472
223.3	0.2441
223.666	0.2904
224.031	0.3103
224.397	0.299
224.762	0.3465
225.127	0.3588
225.493	0.3895
225.858	0.4169
226.223	0.4331
226.588	0.464
226.952	0.4699
227.317	0.5275
227.682	0.5053
228.046	0.5052
228.411	0.5715
228.775	0.5614
229.14	0.588
229.504	0.6047
229.868	0.6123
230.232	0.6167
230.596	0.6415
230.96	0.668
231.324	0.6547
231.688	0.6539
232.052	0.6972
232.415	0.6949
232.779	0.715
233.142	0.7147
233.505	0.7141
233.869	0.729
234.232	0.7376
234.595	0.7145
234.958	0.7275
235.321	0.7329
235.684	0.7292
236.047	0.7478
236.409	0.7243
236.772	0.7338
237.134	0.7334
237.497	0.7256
237.859	0.7505
238.222	0.731
238.584	0.7273
238.946	0.7289
239.308	0.7202
239.67	0.7233
240.032	0.7242
240.393	0.7341
240.755	0.7285
241.117	0.7248
241.478	0.7164
241.84	0.7295
242.201	0.7231
242.562	0.7215
242.924	0.7096
243.285	0.7075
243.646	0.7214
244.007	0.7095
244.368	0.7131
244.728	0.7135
245.089	0.7139
245.45	0.7223
245.81	0.7061
246.171	0.7195
246.531	0.7019
246.891	0.7029
247.252	0.7021
247.612	0.6996
247.972	0.7108
248.332	0.7088
248.692	0.7124
249.051	0.7114
249.411	0.7103
249.771	0.7023
250.13	0.7051
250.49	0.7028
250.849	0.7034
251.208	0.7068
251.568	0.7064
251.927	0.7079
252.286	0.704
252.645	0.7025
253.004	0.7069
253.363	0.702
253.721	0.7104
254.08	0.7081
254.439	0.7027
254.797	0.694
255.155	0.698
255.514	0.703
255.872	0.7018
256.23	0.699
256.588	0.7153
256.946	0.6998
257.304	0.697
257.662	0.7046
258.02	0.6997
258.377	0.7028
258.735	0.6956
259.093	0.6954
259.45	0.6984
259.807	0.6952
260.165	0.6936
260.522	0.6977
260.879	0.6835
261.236	0.6917
261.593	0.6872
261.95	0.6871
262.306	0.6883
262.663	0.6776
263.02	0.6756
263.376	0.6762
263.733	0.6764
264.089	0.6755
264.445	0.67
264.802	0.6694
265.158	0.6718
265.514	0.6644
265.87	0.6603
266.226	0.664
266.581	0.6646
266.937	0.6575
267.293	0.6563
267.648	0.6479
268.004	0.6495
268.359	0.6429
268.714	0.6433
269.07	0.643
269.425	0.6394
269.78	0.6306
270.135	0.6291
270.49	0.6297
270.844	0.6223
271.199	0.6205
271.554	0.6181
271.908	0.6103
272.263	0.6142
272.617	0.6065
272.972	0.6036
273.326	0.5954
273.68	0.5945
274.034	0.5927
274.388	0.5919
274.742	0.5866
275.096	0.5839
275.45	0.5774
275.803	0.5754
276.157	0.5729
276.51	0.5655
276.864	0.5616
277.217	0.5608
277.571	0.5614
277.924	0.5459
278.277	0.5468
278.63	0.5382
278.983	0.5335
279.336	0.5323
279.688	0.5227
280.041	0.5186
280.394	0.5156
280.746	0.5139
281.099	0.5019
281.451	0.4994
281.803	0.4969
282.156	0.4904
282.508	0.4865
282.86	0.4819
283.212	0.4761
283.564	0.4718
283.916	0.4661
284.267	0.4632
284.619	0.4576
284.971	0.4523
285.322	0.4464
285.673	0.4425
286.025	0.4383
286.376	0.4322
286.727	0.4267
287.078	0.4218
287.429	0.4177
287.78	0.4142
288.131	0.4088
288.482	0.4043
288.833	0.4014
289.183	0.3945
289.534	0.3901
289.884	0.3833
290.235	0.3819
290.585	0.3744
290.935	0.3691
291.285	0.3634
291.635	0.362
291.985	0.3571
292.335	0.3501
292.685	0.3476
293.035	0.3437
293.384	0.3367
293.734	0.3346
294.083	0.3301
294.433	0.3216
294.782	0.3188
295.131	0.3144
295.48	0.3081
295.829	0.3063
296.179	0.3009
296.527	0.2973
296.876	0.2931
297.225	0.2888
297.574	0.284
297.922	0.2809
298.271	0.276
298.619	0.2726
298.968	0.2677
299.316	0.2637
299.664	0.261
300.012	0.2571
300.36	0.2534
300.708	0.2494
301.056	0.2463
301.404	0.2418
301.752	0.241
302.099	0.2365
302.447	0.2331
302.794	0.2305
303.142	0.2274
303.489	0.2233
303.836	0.2215
304.183	0.22
304.531	0.2163
304.878	0.2145
305.224	0.2116
305.571	0.2094
305.918	0.2071
306.265	0.2056
306.611	0.2033
306.958	0.2016
307.304	0.1995
307.651	0.1988
307.997	0.196
308.343	0.1964
308.689	0.1933
309.035	0.1921
309.381	0.1917
309.727	0.1903
310.073	0.1897
310.419	0.1889
310.764	0.1866
311.11	0.1861
311.455	0.1857
311.801	0.185
312.146	0.184
312.491	0.1843
312.837	0.1825
313.182	0.1826
313.527	0.1829
313.872	0.1826
314.216	0.1829
314.561	0.1821
314.906	0.1825
315.251	0.1825
315.595	0.1826
315.94	0.1836
316.284	0.183
316.628	0.184
316.972	0.1843
317.317	0.1847
317.661	0.1856
318.005	0.1857
318.348	0.1865
318.692	0.1877
319.036	0.187
319.38	0.1887
319.723	0.1894
320.067	0.1912
320.41	0.1918
320.754	0.1932
321.097	0.194
321.44	0.1954
321.783	0.1963
322.126	0.1984
322.469	0.1989
322.812	0.2005
323.155	0.2018
323.498	0.2032
323.84	0.2048
324.183	0.2073
324.525	0.2086
324.868	0.2103
325.21	0.211
325.552	0.2129
325.894	0.213
326.236	0.2156
326.578	0.2171
326.92	0.2195
327.262	0.2209
327.604	0.2225
327.946	0.2248
328.287	0.2264
328.629	0.2287
328.97	0.2305
329.312	0.2315
329.653	0.2326
329.994	0.2348
330.335	0.2365
330.676	0.2389
331.017	0.2419
331.358	0.2429
331.699	0.2449
332.04	0.2468
332.38	0.248
332.721	0.2497
333.061	0.2526
333.402	0.2544
333.742	0.2567
334.083	0.258
334.423	0.2594
334.763	0.2609
335.103	0.2629
335.443	0.2635
335.783	0.2657
336.123	0.2673
336.462	0.2685
336.802	0.2709
337.141	0.2721
337.481	0.2729
337.82	0.2744
338.16	0.2762
338.499	0.2782
338.838	0.279
339.177	0.2815
339.516	0.2828
339.855	0.284
340.194	0.2851
340.533	0.2865
340.872	0.2876
341.21	0.2886
341.549	0.29
341.887	0.2902
342.226	0.2919
342.564	0.292
342.902	0.2932
343.24	0.2943
343.578	0.2945
343.916	0.2955
344.254	0.2952
344.592	0.2958
344.93	0.2958
345.268	0.2968
345.605	0.2967
345.943	0.2983
346.28	0.2974
346.618	0.2973
346.955	0.298
347.292	0.2986
347.629	0.2994
347.966	0.298
348.303	0.2984
348.64	0.299
348.977	0.2983
349.314	0.2991
349.65	0.2992
349.987	0.2994
350.324	0.2994
350.66	0.2989
350.996	0.2974
351.333	0.2984
351.669	0.2976
352.005	0.2955
352.341	0.2962
352.677	0.295
353.013	0.2935
353.349	0.2922
353.685	0.2911
354.02	0.2894
354.356	0.2883
354.691	0.2866
355.027	0.2861
355.362	0.2855
355.697	0.2842
356.033	0.2834
356.368	0.2821
356.703	0.2817
357.038	0.2798
357.373	0.2787
357.707	0.2771
358.042	0.2757
358.377	0.2759
358.711	0.2746
359.046	0.2726
359.38	0.2717
359.715	0.2706
360.049	0.2687
360.383	0.2686
360.717	0.266
361.051	0.265
361.385	0.2619
361.719	0.2601
362.053	0.2594
362.387	0.2568
362.72	0.2541
363.054	0.2525
363.387	0.2509
363.721	0.248
364.054	0.2452
364.387	0.2443
364.721	0.2427
365.054	0.24
365.387	0.2381
365.72	0.2363
366.053	0.2338
366.385	0.2321
366.718	0.2295
367.051	0.2287
367.383	0.2269
367.716	0.225
368.048	0.224
368.381	0.2215
368.713	0.2204
369.045	0.2198
369.377	0.2172
369.709	0.2157
370.041	0.2147
370.373	0.2121
370.705	0.2102
371.037	0.2089
371.368	0.2072
371.7	0.2057
372.031	0.2028
372.363	0.2003
372.694	0.1981
373.025	0.196
373.356	0.1938
373.688	0.1912
374.019	0.1888
374.35	0.187
374.68	0.1841
375.011	0.1823
375.342	0.1794
375.673	0.1777
376.003	0.1747
376.334	0.1734
376.664	0.1702
376.995	0.1692
377.325	0.1658
377.655	0.1654
377.985	0.1636
378.315	0.1611
378.645	0.1602
378.975	0.1577
379.305	0.1565
379.635	0.1558
379.964	0.1545
380.294	0.1523
380.623	0.1507
380.953	0.1489
381.282	0.1474
381.611	0.1454
381.941	0.1444
382.27	0.1428
382.599	0.1403
382.928	0.1383
383.257	0.137
383.585	0.1351
383.914	0.1344
384.243	0.1315
384.571	0.1294
384.9	0.1274
385.228	0.1262
385.557	0.1236
385.885	0.1217
386.213	0.1196
386.541	0.1186
386.869	0.1159
387.197	0.1142
387.525	0.1124
387.853	0.1108
388.181	0.1094
388.508	0.1069
388.836	0.1054
389.164	0.1035
389.491	0.1022
389.818	0.1005
390.146	0.0996
390.473	0.0979
390.8	0.0969
391.127	0.0953
391.454	0.0936
391.781	0.0924
392.108	0.0908
392.435	0.0903
392.761	0.0887
393.088	0.088
393.415	0.0871
393.741	0.0865
394.067	0.0843
394.394	0.0842
394.72	0.0821
395.046	0.0821
395.372	0.0812
395.698	0.0803
396.024	0.0788
396.35	0.0774
396.676	0.0762
397.001	0.0751
397.327	0.0743
397.653	0.0726
397.978	0.0716
398.303	0.0708
398.629	0.0685
398.954	0.0683
399.279	0.0673
399.604	0.0668
399.929	0.0655
400.254	0.0651
400.579	0.0649
400.904	0.0637
401.229	0.0629
401.553	0.0618
401.878	0.0616
402.202	0.0603
402.527	0.06
402.851	0.0594
403.175	0.0584
403.5	0.0584
403.824	0.0575
404.148	0.0574
404.472	0.0558
404.796	0.0566
405.119	0.0559
405.443	0.0553
405.767	0.0543
406.09	0.0544
406.414	0.0535
406.737	0.0529
407.061	0.0532
407.384	0.053
407.707	0.0531
408.03	0.0519
408.353	0.0527
408.676	0.0522
408.999	0.052
409.322	0.052
409.645	0.0513
409.968	0.0509
410.29	0.0507
410.613	0.0512
410.935	0.0502
411.258	0.0507
411.58	0.0501
411.902	0.0505
412.224	0.05
412.546	0.0498
412.868	0.0501
413.19	0.05
413.512	0.0496
413.834	0.0484
414.156	0.0492
414.477	0.0495
414.799	0.0492
415.121	0.0496
415.442	0.0494
415.763	0.0487
416.085	0.0493
416.406	0.0489
416.727	0.0492
417.048	0.0492
417.369	0.0488
417.69	0.0481
418.011	0.0484
418.331	0.0485
418.652	0.0492
418.973	0.0487
419.293	0.0486
419.614	0.0492
419.934	0.0497
420.254	0.0491
420.574	0.0486
420.895	0.0497
421.215	0.0488
421.535	0.0485
421.855	0.0484
422.174	0.0486
422.494	0.0485
422.814	0.0479
423.134	0.0485
423.453	0.0483
423.773	0.0479
424.092	0.0485
424.411	0.0482
424.731	0.0487
425.05	0.0484
425.369	0.0483
425.688	0.0488
426.007	0.0484
426.326	0.0488
426.644	0.0488
426.963	0.0489
427.282	0.0486
427.6	0.0484
427.919	0.0483
428.237	0.049
428.556	0.0488
428.874	0.0488
429.192	0.049
429.51	0.0498
429.828	0.0491
430.146	0.0493
430.464	0.0482
430.782	0.049
431.1	0.0492
431.418	0.0491
431.735	0.0489
432.053	0.0493
432.37	0.0488
432.688	0.0491
433.005	0.0488
433.322	0.0493
433.639	0.0489
433.957	0.0496
434.274	0.0491
434.591	0.049
434.907	0.0487
435.224	0.0485
435.541	0.0486
435.858	0.049
436.174	0.0491
436.491	0.0484
436.807	0.0479
437.124	0.0487
437.44	0.0492
437.756	0.0486
438.072	0.049
438.388	0.0485
438.704	0.0482
439.02	0.0485
439.336	0.0477
439.652	0.0482
439.968	0.0477
440.283	0.0474
440.599	0.0475
440.914	0.048
441.23	0.0485
441.545	0.0474
441.86	0.0477
442.175	0.0477
442.491	0.0478
442.806	0.0468
443.121	0.047
443.435	0.0465
443.75	0.0478
444.065	0.0473
444.38	0.0478
444.694	0.0474
445.009	0.0473
445.323	0.0468
445.638	0.0459
445.952	0.0468
446.266	0.047
446.58	0.0469
446.894	0.047
447.208	0.047
447.522	0.0463
447.836	0.0466
448.15	0.0456
448.464	0.0457
448.777	0.0459
449.091	0.045
449.404	0.0454
449.718	0.0449
450.031	0.045
450.345	0.0446
450.658	0.0453
450.971	0.0452
451.284	0.0446
451.597	0.044
451.91	0.0442
452.223	0.0446
452.535	0.0441
452.848	0.0449
453.161	0.0434
453.473	0.044
453.786	0.0433
454.098	0.0434
454.411	0.0441
454.723	0.0425
455.035	0.0429
455.347	0.0421
455.659	0.0427
455.971	0.0423
456.283	0.0422
456.595	0.042
456.907	0.0426
457.218	0.0419
457.53	0.0409
457.841	0.0417
458.153	0.0413
458.464	0.0413
458.776	0.0411
459.087	0.0409
459.398	0.041
459.709	0.0403
460.02	0.0408
460.331	0.0393
460.642	0.0399
460.953	0.0395
461.263	0.0388
461.574	0.0394
461.885	0.0391
462.195	0.0381
462.506	0.0384
462.816	0.0378
463.126	0.0383
463.437	0.0385
463.747	0.0375
464.057	0.0374
464.367	0.0372
464.677	0.0369
464.987	0.0364
465.296	0.0363
465.606	0.0356
465.916	0.0364
466.225	0.036
466.535	0.0352
466.844	0.035
467.154	0.0359
467.463	0.0348
467.772	0.0346
468.081	0.0342
468.39	0.034
468.699	0.0342
469.008	0.0335
469.317	0.0331
469.626	0.0327
469.935	0.0324
470.243	0.0324
470.552	0.0321
470.86	0.0327
471.169	0.0315
471.477	0.0315
471.785	0.0313
472.093	0.0312
472.402	0.0304
472.71	0.0315
473.018	0.0301
473.326	0.0298
473.633	0.0302
473.941	0.0302
474.249	0.0299
474.556	0.0299
474.864	0.0294
475.171	0.0289
475.479	0.0284
475.786	0.0284
476.094	0.0285
476.401	0.0283
476.708	0.0282
477.015	0.0282
477.322	0.028
477.629	0.0269
477.936	0.0277
478.242	0.0263
478.549	0.0261
478.856	0.0259
479.162	0.0256
479.469	0.0263
479.775	0.0261
480.081	0.0253
480.388	0.0248
480.694	0.0251
481	0.0242
481.306	0.0243
481.612	0.0245
481.918	0.024
482.224	0.0239
482.53	0.0232
482.835	0.0243
483.141	0.0234
483.446	0.0232
483.752	0.0225
484.057	0.0225
484.363	0.0215
484.668	0.0218
484.973	0.0204
485.278	0.0211
485.583	0.0213
485.888	0.0211
486.193	0.0201
486.498	0.02
486.803	0.0202
487.107	0.0196
487.412	0.0194
487.717	0.0189
488.021	0.0192
488.325	0.0196
488.63	0.0194
488.934	0.0185
489.238	0.0193
489.542	0.0175
489.846	0.0181
490.15	0.0184
490.454	0.0181
490.758	0.0176
491.062	0.0164
491.366	0.0162
491.669	0.0176
491.973	0.0172
492.276	0.016
492.58	0.0166
492.883	0.0159
493.186	0.0161
493.489	0.0152
493.792	0.0144
494.096	0.0145
494.399	0.0147
494.701	0.0149
495.004	0.0139
495.307	0.0147
495.61	0.014
495.912	0.0143
496.215	0.0129
496.517	0.0129
496.82	0.0137
497.122	0.0129
497.424	0.0134
497.727	0.0127
498.029	0.012
498.331	0.012
498.633	0.0128
498.935	0.0122
499.237	0.0118
499.538	0.0117
499.84	0.0108
500.142	0.0114
500.443	0.0098
500.745	0.0107
501.046	0.0099
501.348	0.0096
501.649	0.0096
501.95	0.0093
502.251	0.0096
502.552	0.0094
502.853	0.0088
503.154	0.0087
503.455	0.0094
503.756	0.009
504.057	0.0097
504.357	0.0082
504.658	0.0089
504.958	0.0094
505.259	0.0087
505.559	0.0076
505.859	0.0081
506.16	0.008
506.46	0.0078
506.76	0.0075
507.06	0.008
507.36	0.0077
507.66	0.0069
507.96	0.0076
508.259	0.0069
508.559	0.0082
508.859	0.0076
509.158	0.0062
509.457	0.0062
509.757	0.0063
510.056	0.0067
510.355	0.0062
510.655	0.0058
510.954	0.0069
511.253	0.0065
511.552	0.0067
511.851	0.0067
512.149	0.0046
512.448	0.0061
512.747	0.0065
513.045	0.0054
513.344	0.0038
513.642	0.0047
513.941	0.0047
514.239	0.0042
514.537	0.0036
514.836	0.0052
515.134	0.0029
515.432	0.0057
515.73	0.0039
516.028	0.0043
516.326	0.0049
516.623	0.0046
516.921	0.0027
517.219	0.0034
517.516	0.0036
517.814	0.0035
518.111	0.0035
518.409	0.0028
518.706	0.0036
519.003	0.0033
519.3	0.0033
519.597	0.0027
519.894	0.0035
520.191	0.0023
520.488	0.003
520.785	0.002
521.082	0.0024
521.378	0.0013
521.675	0.0025
521.971	0.0023
522.268	0.0029
522.564	0.0023
522.861	0.0027
523.157	0.0032
523.453	0.0025
523.749	0.0018
524.045	0.003
524.341	0.002
524.637	0.0011
524.933	0.0019
525.229	0.0016
525.524	0.0006
525.82	0.0011
526.115	0.0006
526.411	0.0015
526.706	0.0006
527.002	0.0015
527.297	-0.0003
527.592	0.0006
527.887	0.0027
528.182	0.0018
528.477	0.0023
528.772	0.001
529.067	0.001
529.362	0.0014
529.657	0.0005
529.951	0.0005
530.246	0.0002
530.54	0.0016
530.835	0.0003
531.129	-0.0002
531.423	0.0002
531.718	0.0011
532.012	-0.0004
532.306	0.0004
532.6	-0.0008
532.894	0.0011
533.188	0.0014
533.482	0.0008
533.775	0.0003
534.069	-0.0005
534.363	-0.0011
534.656	-0.0011
534.95	0.0003
535.243	-0.001
535.536	0.0004
535.83	-0.0013
536.123	-0.0002
536.416	-0.0004
536.709	-0.0012
537.002	-0.0014
537.295	-0.0005
537.588	-0.0011
537.881	-0.0005
538.173	-0.0011
538.466	-0.0006
538.759	0.0007
539.051	0.0005
539.344	-0.001
539.636	-0.0001
539.928	-0.0006
540.22	0.0003
540.513	0.0003
540.805	-0.0004
541.097	-0.0013
541.389	-0.0006
541.681	-0.0009
541.972	-0.0002
542.264	0
542.556	0.0002
542.847	-0.0006
543.139	-0.0003
543.431	-0.001
543.722	-0.001
544.013	-0.0006
544.305	-0.0006
544.596	-0.0016
544.887	-0.0009
545.178	-0.0003
545.469	-0.0009
545.76	-0.001
546.051	0
546.342	-0.0007
546.632	-0.0011
546.923	-0.0014
547.214	-0.0012
547.504	-0.0017
547.795	-0.001
548.085	-0.0012
548.375	-0.0012
548.666	-0.002
548.956	-0.0013
549.246	-0.0012
549.536	-0
549.826	-0.0009
550.116	-0.001
550.406	-0.0003
550.695	-0.0018
550.985	-0.0004
551.275	-0.0012
551.564	-0.0022
551.854	-0.0003
552.143	-0.0015
552.433	-0.0017
552.722	-0.0023
553.011	0.0002
553.3	-0.0007
553.589	-0.0007
553.879	-0.0012
554.167	-0.001
554.456	0.0008
554.745	0.0001
555.034	-0.002
555.323	0.0006
555.611	-0.0003
555.9	-0.0001
556.188	-0.0007
556.477	-0.0003
556.765	-0.0007
557.053	-0.0009
557.342	-0.0006
557.63	-0.0007
557.918	-0.0009
558.206	0.0002
558.494	-0.0001
558.782	0.0001
559.069	0.001
559.357	0.0001
559.645	0.0002
559.932	0.0001
560.22	-0.0008
560.507	-0.0016
560.795	-0.0013
561.082	-0.0016
561.37	-0.0004
561.657	-0.0006
561.944	-0.0012
562.231	-0.0008
562.518	0.0003
562.805	-0.0004
563.092	0.0003
563.379	0.0005
563.665	-0
563.952	0
564.239	0.0012
564.525	0.0002
564.811	0.0013
565.098	0.0002
565.384	-0.0004
565.67	0
565.957	0.0013
566.243	0.0013
566.529	0.0004
566.815	0.0008
567.101	0.0008
567.387	0.0001
567.672	0.0002
567.958	0.0007
568.244	0.0003
568.529	0.0007
568.815	-0.0002
569.1	-0.0004
569.386	-0.0008
569.671	0.0006
569.956	-0.0002
570.242	0.0003
570.527	-0
570.812	-0.0006
571.097	0.0002
571.382	-0.0001
571.666	0.0011
571.951	0.0002
572.236	0.0002
572.521	-0.0003
572.805	-0.0009
573.09	-0.0003
573.374	-0.0006
573.659	0.0004
573.943	-0.0002
574.227	-0.0009
574.511	-0.0005
574.795	-0.0002
575.079	0.0001
575.363	-0.0015
575.647	-0.0007
575.931	0
576.215	-0.0004
576.499	-0.0005
576.782	-0.001
577.066	-0.0011
577.349	0.0002
577.633	-0.0002
577.916	-0.0008
578.2	-0.0009
578.483	-0.0006
578.766	-0.0003
579.049	-0.0002
579.332	0.0007
579.615	0.0003
579.898	-0.0003
580.181	0.0007
580.464	0.0015
580.746	0.0005
581.029	0
581.312	-0.0005
581.594	-0.0007
581.877	-0.0006
582.159	-0.0007
582.441	-0.0007
582.724	-0.0005
583.006	0.0005
583.288	0.0001
583.57	0.0007
583.852	0.0007
584.134	-0.0001
584.416	0.0002
584.697	0.0005
584.979	-0.0012
585.261	-0.0011
585.542	-0.0008
585.824	-0.0009
586.105	-0.001
586.387	-0.0009
586.668	-0.0001
586.949	-0.0005
587.231	-0
587.512	0.0002
587.793	-0.0003
588.074	-0.0005
588.355	0.0004
588.636	0.0001
588.916	-0.0009
589.197	-0.0004
589.478	-0.0002
589.758	-0.0002
590.039	0.0002
590.319	0
590.6	0.0001
590.88	0.0002
591.16	0.0006
591.441	0.0001
591.721	-0.0005
592.001	-0.0005
592.281	-0.0008
592.561	-0.0001
592.841	-0.0005
593.12	-0.0018
593.4	-0.001
593.68	-0.002
593.959	-0.0019
594.239	-0.001
594.518	-0.0007
594.798	-0.0001
595.077	-0.0012
595.356	-0.0008
595.636	-0.0007
595.915	-0.0002
596.194	-0.0002
596.473	-0.0009
596.752	0.0005
597.031	0.001
597.31	0.0002
597.588	0
597.867	-0.0006
598.146	-0.0005
598.424	-0.0004
598.703	-0.0004
598.981	-0.0016
599.259	-0.001
599.538	-0.0009
599.816	-0.0002
600.094	-0.0007
600.372	-0.0018
600.65	-0.0016
600.928	-0.0014
601.206	-0.0002
601.484	-0.0005
601.762	-0.0007
602.04	-0
602.317	-0.0003
602.595	0.0001
602.872	0.0006
603.15	0.0011
603.427	-0.0009
603.704	-0.0008
603.982	-0.0004
604.259	-0.0005
604.536	-0.0004
604.813	-0.0006
605.09	-0.0007
605.367	-0.0011
605.644	-0.0009
605.921	-0.0002
606.197	-0.001
606.474	-0.0008
606.751	-0.0007
607.027	-0.0007
607.304	-0.0008
607.58	-0.0008
607.856	-0.0009
608.133	-0.0013
608.409	-0.0001
608.685	-0.0012
608.961	-0.0009
609.237	-0.0011
609.513	-0.0014
609.789	-0.0005
610.065	-0.0005
610.341	-0.0006
610.616	-0.0005
610.892	0.0002
611.167	-0.0006
611.443	-0.0011
611.718	-0.001
611.994	-0.0013
612.269	-0.0009
612.544	-0.0009
612.819	-0.0015
613.095	-0.0008
613.37	-0.0001
613.645	-0.0011
613.919	-0.0011
614.194	-0.0001
614.469	0.0007
614.744	0.0001
615.019	-0.0012
615.293	-0.0011
615.568	-0.0004
615.842	0.0002
616.116	0.0001
616.391	0.0001
616.665	0.0008
616.939	0.0003
617.213	0.0008
617.488	0.0011
617.762	-0.0004
618.035	-0.0007
618.309	-0.0012
618.583	0.0001
618.857	0.0012
619.131	0.0002
619.404	0.0008
619.678	0.0003
619.951	-0.0004
620.225	-0.0005
620.498	-0.0008
620.771	-0.0002
621.045	-0.0017
621.318	-0.0021
621.591	-0.0019
621.864	-0.0014
622.137	-0.0021
622.41	-0.0027
622.683	-0.0012
622.956	-0.0011
623.228	-0.0002
623.501	0
623.774	-0.0006
624.046	-0.001
624.319	-0.0015
624.591	-0.0014
624.863	-0.0017
625.136	0.0002
625.408	0
625.68	0.0004
625.952	-0
626.224	0.0004
626.496	0.0003
626.768	-0.0005
627.04	-0.0012
627.311	-0.0013
627.583	-0
627.855	0.0011
628.126	0.0012
628.398	0.0016
628.669	0.0021
628.941	0.001
629.212	0.0009
629.483	0.0004
629.755	0.0006
630.026	0.0002
630.297	0.0009
630.568	-0.0007
630.839	0.001
631.11	-0.0004
631.38	0.0011
631.651	0.0008
631.922	0.0004
632.192	0.0004
632.463	-0.0005
632.733	-0.0005
633.004	0.0005
633.274	-0.0006
633.545	0.0002
633.815	-0.0001
634.085	-0.0012
634.355	-0.0023
634.625	-0.0027
634.895	-0.0012
635.165	-0.0014
635.435	-0.0018
635.705	-0.0015
635.974	-0.0025
636.244	-0.0017
636.514	-0.0004
636.783	-0.0014
637.053	-0.0008
637.322	-0.0006
637.591	-0.0002
637.861	-0.0019
638.13	-0.0021
638.399	-0.0029
638.668	-0.0023
638.937	-0.0032
639.206	-0.0023
639.475	-0.0026
639.744	-0.0033
640.013	-0.0027
640.281	-0.0022
640.55	-0.0014
640.819	-0.0016
641.087	-0.0028
641.356	-0.003
641.624	-0.0006
641.892	0.0003
642.161	-0.0006
642.429	-0.0012
642.697	-0.0015
642.965	-0.001
643.233	-0.002
643.501	-0.0014
643.769	-0.0005
644.037	-0.0002
644.305	-0.0009
644.572	-0.0009
644.84	-0.0018
645.108	-0.0029
645.375	-0.0024
645.643	-0.0019
645.91	-0.0002
646.177	0.0003
646.445	0
646.712	0.0018
646.979	0.0018
647.246	0.0028
647.513	0.0026
647.78	0.0009
648.047	-0.0006
648.314	-0.0019
648.58	-0.0011
648.847	-0.0018
649.114	-0.0001
649.38	0.0002
649.647	-0.001
649.913	-0.0013
650.18	-0.0008
650.446	-0.0007
650.712	-0.0021
650.978	-0.0021
651.245	-0.0014
651.511	-0.0013
651.777	-0.0012
652.043	-0.0013
652.309	-0.0005
652.574	0.0011
652.84	0.0004
653.106	0.0002
653.371	0.0011
653.637	0.0016
653.903	0.001
654.168	0.0019
654.433	0.0023
654.699	0.0014
654.964	0.0024
655.229	0.0015
655.494	-0.0003
655.759	-0.002
656.024	-0.0003
656.289	-0
656.554	-0.0004
656.819	-0.0011
657.084	0.0001
657.349	-0.0001
657.613	0.0007
657.878	-0.0002
658.142	-0.001
658.407	-0.0003
658.671	-0
658.936	0.0004
659.2	0.0003
659.464	0.0007
659.728	0.001
659.992	-0.0007
660.256	-0.0003
660.52	-0.001
660.784	-0.0006
661.048	0.0002
661.312	0.0001
661.575	0.0012
661.839	0.0005
662.103	0.0005
662.366	-0.0001
662.63	-0.0006
662.893	-0.001
663.156	-0.0009
663.42	-0.0013
663.683	-0.0021
663.946	-0.0035
664.209	-0.0032
664.472	-0.0028
664.735	-0.0025
664.998	-0.0008
665.261	-0.0018
665.524	-0.0014
665.786	-0.0012
666.049	-0.0012
666.312	-0.0005
666.574	-0.0018
666.837	-0.0014
667.099	-0.0001
667.361	-0.0021
667.624	-0.0019
667.886	-0.003
668.148	-0.0031
668.41	-0.0016
668.672	-0.0027
668.934	-0.0004
669.196	-0.0001
669.458	0.0008
669.72	0.0008
669.982	0.0004
670.243	0.0011
670.505	0.0001
670.766	-0.0004
671.028	-0.0007
671.289	-0.002
671.551	-0.0022
671.812	-0.0029
672.073	-0.0015
672.334	-0.0012
672.596	-0.0018
672.857	-0.0021
673.118	-0.0023
673.379	-0.003
673.639	-0.0029
673.9	-0.0032
674.161	-0.003
674.422	-0.0029
674.682	-0.0026
674.943	-0.0022
675.203	-0.0021
675.464	-0.0022
675.724	-0.004
675.985	-0.0038
676.245	-0.004
676.505	-0.0035
676.765	-0.0034
677.025	-0.0034
677.285	-0.0028
677.545	-0.0019
677.805	-0.0018
678.065	-0.001
678.325	-0.0017
678.585	-0.0019
678.844	-0.0039
679.104	-0.0031
679.363	-0.0044
679.623	-0.0038
679.882	-0.0028
680.142	-0.0022
680.401	-0.0029
680.66	-0.0013
680.919	0.0001
681.178	-0.0007
681.437	-0.0007
681.696	-0.0012
681.955	-0.0009
682.214	-0.0005
682.473	-0.0011
682.732	-0.0009
682.99	-0.0016
683.249	-0.0013
683.508	-0.0019
683.766	-0.0011
684.024	-0.0022
684.283	-0.0018
684.541	-0.0005
684.799	-0.0014
685.058	-0.0016
685.316	-0.0015
685.574	-0.0023
685.832	-0.002
686.09	-0.002
686.348	-0.0038
686.606	-0.0042
686.863	-0.0031
687.121	-0.0031
687.379	-0.0017
687.636	-0.0023
687.894	-0.0013
688.151	-0.0013
688.409	-0.0019
688.666	-0.0023
688.923	-0.0037
689.181	-0.0032
689.438	-0.003
689.695	-0.0032
689.952	-0.0042
690.209	-0.0039
690.466	-0.0038
690.723	-0.0034
690.979	-0.0025
691.236	-0.0026
691.493	-0.0017
691.75	-0.002
692.006	-0.0027
692.263	-0.0033
692.519	-0.0031
692.775	-0.0026
693.032	-0.003
693.288	-0.0017
693.544	-0.0007
693.8	-0.0011
694.056	-0.0009
694.313	-0.0012
694.568	-0.0017
694.824	-0.0022
695.08	-0.0019
695.336	-0.003
695.592	-0.0033
695.847	-0.0026
696.103	-0.0025
696.359	-0.0023
696.614	-0.0031
696.869	-0.003
697.125	-0.0035
697.38	-0.0025
697.635	-0.0023
697.891	-0.0019
698.146	-0.0018
698.401	-0.0017
698.656	-0.0023
698.911	-0.0024
699.166	-0.0022
699.42	-0.0015
699.675	-0.0009
699.93	-0.0014
700.185	-0.0024
700.439	-0.0019
700.694	-0.0016
700.948	-0.0023
701.203	-0.0026
701.457	-0.0028
701.711	-0.0027
701.965	-0.0037
702.22	-0.0034
702.474	-0.0037
702.728	-0.0032
702.982	-0.0022
703.236	-0.0028
703.49	-0.0016
703.743	-0.0014
703.997	-0.0018
704.251	-0.003
704.504	-0.0019
704.758	-0.0028
705.012	-0.0021
705.265	-0.0014
705.518	-0.0004
705.772	-0.0011
706.025	-0.0011
706.278	-0.0025
706.531	-0.0029
706.785	-0.0032
707.038	-0.0027
707.291	-0.0029
707.543	-0.0034
707.796	-0.0029
708.049	-0.0033
708.302	-0.0035
708.555	-0.0038
708.807	-0.0024
709.06	-0.0041
709.312	-0.0032
709.565	-0.0036
709.817	-0.0045
710.069	-0.004
710.322	-0.0049
710.574	-0.0054
710.826	-0.0052
711.078	-0.0043
711.33	-0.004
711.582	-0.0052
711.834	-0.0049
712.086	-0.0057
712.338	-0.0058
712.59	-0.0055
712.841	-0.006
713.093	-0.0059
713.344	-0.0052
713.596	-0.0056
713.847	-0.0038
714.099	-0.0044
714.35	-0.0049
714.601	-0.0047
714.853	-0.0028
715.104	-0.0035
715.355	-0.003
715.606	-0.0038
715.857	-0.0033
716.108	-0.0048
716.359	-0.0036
716.609	-0.0039
716.86	-0.0043
717.111	-0.0035
717.361	-0.0029
717.612	-0.0023
717.863	-0.0006
718.113	0.0003
718.363	-0.0012
718.614	-0.0002
718.864	-0.0002
719.114	-0.0006
719.364	0
719.614	-0.0003
719.865	-0.0001
720.114	0.0009
720.364	0.001
720.614	0.0014
720.864	0.0004
721.114	0.001
721.364	0.0006
721.613	0.0004
721.863	-0.0004
722.112	-0.0009
722.362	-0.0009
722.611	-0.0017
722.86	-0.002
723.11	-0.0012
723.359	-0.0018
723.608	-0.0016
723.857	-0.0021
724.106	-0.0013
724.355	-0.0018
724.604	-0.0014
724.853	-0.0017
725.102	-0.0032
725.351	-0.0027
725.599	-0.0035
725.848	-0.0033
726.097	-0.0025
726.345	-0.0024
726.594	-0.004
726.842	-0.0034
727.09	-0.005
727.339	-0.0056
727.587	-0.0058
727.835	-0.0049
728.083	-0.0047
728.331	-0.0048
728.579	-0.0041
728.827	-0.0031
729.075	-0.0034
729.323	-0.0039
729.571	-0.0037
729.818	-0.0032
730.066	-0.0028
730.314	-0.0032
730.561	-0.0017
730.809	-0.0008
731.056	-0.0011
731.303	-0.0003
731.551	-0.0008
731.798	-0.0011
732.045	-0.001
732.292	0.0001
732.539	0.0003
732.786	0.0009
733.033	0.0001
733.28	0.0002
733.527	0.0002
733.774	-0.0003
734.021	-0.0023
734.267	-0.0025
734.514	-0.0026
734.76	-0.0038
735.007	-0.0029
735.253	-0.0033
735.5	-0.0034
735.746	-0.0027
735.992	-0.0023
736.238	-0.0027
736.485	-0.002
736.731	-0.0022
736.977	-0.0022
737.223	-0.0018
737.469	-0.0022
737.715	-0.0017
737.96	-0.0023
738.206	-0.0034
738.452	-0.0024
738.697	-0.0023
738.943	-0.0021
739.189	-0.0016
739.434	-0.002
739.679	-0.0028
739.925	-0.0035
740.17	-0.0043
740.415	-0.005
740.66	-0.0062
740.906	-0.0062
741.151	-0.0054
741.396	-0.0059
741.641	-0.0057
741.886	-0.0053
742.13	-0.0035
742.375	-0.0034
742.62	-0.0038
742.865	-0.0038
743.109	-0.0015
743.354	-0.0011
743.598	-0.0002
743.843	-0.0006
744.087	0.0003
744.331	0.0003
744.576	0.0012
744.82	0.0017
745.064	0.0018
745.308	0.0023
745.552	0.0015
745.796	0.0002
746.04	0.001
746.284	0.0004
746.528	0.0008
746.771	0.0019
747.015	0.0019
747.259	0.0011
747.502	-0.0001
747.746	-0.0008
747.989	-0.0005
748.233	-0.0011
748.476	0.0001
748.719	0.0009
748.963	0.0017
749.206	0.0015
749.449	0.0002
749.692	0.0001
749.935	0.0008
750.178	-0.0001
750.421	-0.0007
750.664	0.0001
750.906	0.0001
751.149	0.0004
751.392	-0.0003
751.635	-0.0007
751.877	-0.001
752.12	-0.0012
752.362	-0.0013
752.604	-0.0006
752.847	0.0002
753.089	0.0017
753.331	0.0015
753.573	0.0004
753.816	-0.0009
754.058	-0.0017
754.3	-0.0027
754.542	-0.0031
754.783	-0.0031
755.025	-0.0028
755.267	-0.0017
755.509	-0.0025
755.75	-0.0025
755.992	-0.0019
756.234	-0.0034
756.475	-0.0033
756.716	-0.0033
756.958	-0.0026
757.199	-0.0024
757.44	-0.0021
757.682	-0.0019
757.923	-0.0011
758.164	-0.0005
758.405	-0.0003
758.646	0.0005
758.887	0.0012
759.128	0.0009
759.369	0.0004
759.609	0.0016
759.85	0.0017
760.091	0.0016
760.331	0.0005
760.572	-0.0013
760.812	-0.001
761.053	-0.0012
761.293	-0.0005
761.533	-0.0006
761.774	0.0007
762.014	0.0006
762.254	0.0005
762.494	-0.0005
762.734	-0.0009
762.974	-0.0018
763.214	-0.0016
763.454	-0.0011
763.694	-0.0022
763.933	-0.0023
764.173	-0.0046
764.413	-0.0051
764.652	-0.0042
764.892	-0.0031
765.131	-0.0042
765.371	-0.0035
765.61	-0.004
765.849	-0.004
766.089	-0.0028
766.328	-0.0032
766.567	-0.0035
766.806	-0.0033
767.045	-0.0027
767.284	-0.0032
767.523	-0.0031
767.762	-0.0031
768.001	-0.0032
768.239	-0.0023
768.478	-0.0019
768.717	-0.002
768.955	-0.0017
769.194	-0.0017
769.432	-0.0003
769.671	-0
769.909	0.0003
770.148	0.0007
770.386	0.0013
770.624	0.0011
770.862	0.001
771.1	0.0014
771.338	0.0014
771.576	0.0002
771.814	0.001
772.052	0.0011
772.29	0.0023
772.528	0.0034
772.765	0.0037
773.003	0.0045
773.24	0.0042
773.478	0.0024
773.716	0.002
773.953	0.0015
774.19	0.0019
774.428	0.0026
774.665	0.003
774.902	0.003
775.139	0.0036
775.376	0.0027
775.613	0.0026
775.85	0.0019
776.087	0.0022
776.324	0.001
776.561	0.0007
776.798	0.001
777.034	0.001
777.271	0.0016
777.508	0.0024
777.744	0.0017
777.981	0.0031
778.217	0.0029
778.454	0.0024
778.69	0
778.926	-0.0007
779.162	-0.0001
779.399	0.0004
779.635	-0.0003
779.871	-0.0002
780.107	-0.0008
780.343	-0.0014
780.579	-0.0002
780.814	-0.0011
781.05	-0.0013
781.286	-0.0024
781.522	-0.0015
781.757	-0.0014
781.993	-0.0016
782.228	-0.0029
782.464	-0.0018
782.699	-0.0021
782.934	-0.0028
783.17	-0.0024
783.405	-0.0028
783.64	-0.0023
783.875	-0.0038
784.11	-0.0034
784.345	-0.0026
784.58	-0.0021
784.815	-0.0011
785.05	-0.0026
785.285	-0.0025
785.52	-0.0026
785.754	-0.0037
785.989	-0.0033
786.223	-0.0047
786.458	-0.005
786.692	-0.0047
786.927	-0.004
787.161	-0.0026
787.396	-0.0033
787.63	-0.0043
787.864	-0.0053
788.098	-0.0052
788.332	-0.0047
788.566	-0.0039
788.8	-0.0037
789.034	-0.0028
789.268	-0.0026
789.502	-0.0029
789.736	-0.0026
789.969	-0.0035
790.203	-0.0033
790.437	-0.0049
790.67	-0.0053
790.904	-0.0067
791.137	-0.0066
791.37	-0.0076
791.604	-0.0084
791.837	-0.0079
792.07	-0.0077
792.303	-0.0078
792.537	-0.0065
792.77	-0.0068
793.003	-0.0058
793.236	-0.0048
793.469	-0.0048
793.701	-0.0035
793.934	-0.0033
794.167	-0.0026
794.4	-0.0023
794.632	-0.0017
794.865	-0.0009
795.097	-0.0016
795.33	-0.003
795.562	-0.0015
795.795	-0.0004
796.027	-0.0006
796.259	-0.0003
796.491	-0.0005
796.724	-0.0007
796.956	0.0009
797.188	-0.0002
797.42	-0.0004
797.652	-0.0008
797.883	-0.0001
798.115	0.0001
798.347	-0.0004
798.579	0.0006
798.81	0.0016
799.042	0.0015
799.274	0.0006
799.505	-0.0003
799.737	0.0008
799.968	-0.0007
800.199	-0.0005
800.431	-0.0015
800.662	-0.0013
800.893	-0.0024
801.124	-0.0022
801.355	-0.0024
801.586	-0.0027
801.817	-0.0032
802.048	-0.0039
802.279	-0.0037
802.51	-0.0026
802.741	-0.001
802.971	-0.0002
803.202	-0.0005
803.433	-0.0006
803.663	-0.0017
803.894	-0.003
804.124	-0.004
804.354	-0.0026
804.585	-0.0025
804.815	-0.0021
805.045	-0.0025
805.275	-0.002
805.506	-0.0593
805.736	0.0692
805.966	0.1976
806.196	0.2251
