Data from 03 0.5 mM K2Cr2O7 0.3 mM BQDS 1 M H2SO4 5 min_Absorbance_0023.txt Node
Date: Mon Dec 13 19:34:44 EST 2021
User: kwabilab-user
Spectrometer: HDX00518
Trigger mode: 0
Integration Time (sec): 5.000000E-2
Scans to average: 50
Nonlinearity correction enabled: false
Boxcar width: 0
Storing dark spectrum: false
XAxis mode: Wavelengths
Number of Pixels in Spectrum: 2068
>>>>>Begin Spectral Data<<<<<
195.27	0.0976
195.642	0.0499
196.014	0.0392
196.386	-0.0645
196.758	0.0165
197.129	0.0021
197.501	0.0062
197.872	0.0362
198.244	0.0483
198.615	0.0617
198.986	0.058
199.357	0.0699
199.728	0.0444
200.099	0.0482
200.47	0.0461
200.841	0.0538
201.212	0.0723
201.582	0.0644
201.953	0.0515
202.323	0.0546
202.694	0.0541
203.064	0.045
203.434	0.0631
203.804	0.0438
204.174	0.0564
204.544	0.0671
204.914	0.0781
205.284	0.0711
205.653	0.0355
206.023	0.0468
206.393	0.0264
206.762	0.069
207.131	0.0671
207.501	0.0682
207.87	0.0862
208.239	0.0787
208.608	0.0602
208.977	0.048
209.346	0.0662
209.715	0.0491
210.083	0.0368
210.452	0.0411
210.82	0.0649
211.189	0.0392
211.557	0.0648
211.925	0.0414
212.294	0.0522
212.662	0.0673
213.03	0.0576
213.398	0.0831
213.766	0.078
214.133	0.0808
214.501	0.0624
214.869	0.0597
215.236	0.0652
215.604	0.0542
215.971	0.0796
216.338	0.0794
216.705	0.1115
217.072	0.0934
217.439	0.0635
217.806	0.0936
218.173	0.0853
218.54	0.1058
218.907	0.1084
219.273	0.1175
219.64	0.1237
220.006	0.1309
220.373	0.1258
220.739	0.1422
221.105	0.1626
221.471	0.1791
221.837	0.194
222.203	0.2261
222.569	0.2217
222.935	0.2648
223.3	0.2443
223.666	0.289
224.031	0.2965
224.397	0.3299
224.762	0.3394
225.127	0.3737
225.493	0.4074
225.858	0.4168
226.223	0.4408
226.588	0.4651
226.952	0.4944
227.317	0.5193
227.682	0.5434
228.046	0.5266
228.411	0.5462
228.775	0.581
229.14	0.6012
229.504	0.6009
229.868	0.6326
230.232	0.6258
230.596	0.6461
230.96	0.6636
231.324	0.6624
231.688	0.6978
232.052	0.7111
232.415	0.6862
232.779	0.7127
233.142	0.7241
233.505	0.7236
233.869	0.7442
234.232	0.7572
234.595	0.7233
234.958	0.7377
235.321	0.7365
235.684	0.7438
236.047	0.7494
236.409	0.7306
236.772	0.7449
237.134	0.757
237.497	0.7546
237.859	0.7614
238.222	0.7666
238.584	0.7437
238.946	0.7435
239.308	0.7524
239.67	0.7482
240.032	0.7615
240.393	0.7498
240.755	0.7464
241.117	0.757
241.478	0.7522
241.84	0.7494
242.201	0.7399
242.562	0.7495
242.924	0.7396
243.285	0.7431
243.646	0.7464
244.007	0.7361
244.368	0.7403
244.728	0.7335
245.089	0.7431
245.45	0.7331
245.81	0.7378
246.171	0.7355
246.531	0.7349
246.891	0.7287
247.252	0.7348
247.612	0.7344
247.972	0.7306
248.332	0.7377
248.692	0.7372
249.051	0.7364
249.411	0.7389
249.771	0.7275
250.13	0.7318
250.49	0.7255
250.849	0.7297
251.208	0.732
251.568	0.7301
251.927	0.735
252.286	0.7325
252.645	0.7382
253.004	0.7331
253.363	0.7319
253.721	0.7448
254.08	0.7463
254.439	0.7317
254.797	0.7299
255.155	0.732
255.514	0.7345
255.872	0.7409
256.23	0.7328
256.588	0.7398
256.946	0.7347
257.304	0.7304
257.662	0.7288
258.02	0.7304
258.377	0.7347
258.735	0.7368
259.093	0.7219
259.45	0.7313
259.807	0.7305
260.165	0.7319
260.522	0.7291
260.879	0.7279
261.236	0.7224
261.593	0.7283
261.95	0.7239
262.306	0.7216
262.663	0.7118
263.02	0.7188
263.376	0.7147
263.733	0.7151
264.089	0.7119
264.445	0.709
264.802	0.7108
265.158	0.7181
265.514	0.7042
265.87	0.7025
266.226	0.6982
266.581	0.7052
266.937	0.697
267.293	0.6986
267.648	0.6891
268.004	0.6925
268.359	0.6926
268.714	0.6862
269.07	0.6773
269.425	0.6803
269.78	0.6744
270.135	0.6754
270.49	0.6736
270.844	0.6682
271.199	0.6626
271.554	0.6627
271.908	0.6501
272.263	0.66
272.617	0.6509
272.972	0.6463
273.326	0.6425
273.68	0.6397
274.034	0.6346
274.388	0.6338
274.742	0.6356
275.096	0.6293
275.45	0.6237
275.803	0.6166
276.157	0.6149
276.51	0.6072
276.864	0.6062
277.217	0.6008
277.571	0.5982
277.924	0.5945
278.277	0.5911
278.63	0.5842
278.983	0.5763
279.336	0.5701
279.688	0.5699
280.041	0.5645
280.394	0.5599
280.746	0.5539
281.099	0.5511
281.451	0.5478
281.803	0.5392
282.156	0.5348
282.508	0.5302
282.86	0.5222
283.212	0.5199
283.564	0.5118
283.916	0.5093
284.267	0.5064
284.619	0.5006
284.971	0.4938
285.322	0.4896
285.673	0.4829
286.025	0.4755
286.376	0.4738
286.727	0.4666
287.078	0.4627
287.429	0.4584
287.78	0.4549
288.131	0.4473
288.482	0.4424
288.833	0.4372
289.183	0.4305
289.534	0.4278
289.884	0.4217
290.235	0.4144
290.585	0.4071
290.935	0.407
291.285	0.3979
291.635	0.3947
291.985	0.3896
292.335	0.3846
292.685	0.3802
293.035	0.3757
293.384	0.3698
293.734	0.3666
294.083	0.3603
294.433	0.3545
294.782	0.3495
295.131	0.345
295.48	0.3385
295.829	0.3345
296.179	0.3298
296.527	0.3256
296.876	0.32
297.225	0.3167
297.574	0.3124
297.922	0.3068
298.271	0.303
298.619	0.2972
298.968	0.2938
299.316	0.288
299.664	0.2857
300.012	0.2825
300.36	0.2775
300.708	0.2735
301.056	0.2702
301.404	0.2661
301.752	0.263
302.099	0.2594
302.447	0.255
302.794	0.2521
303.142	0.2497
303.489	0.2452
303.836	0.2439
304.183	0.2397
304.531	0.2371
304.878	0.2343
305.224	0.2338
305.571	0.2299
305.918	0.2259
306.265	0.2262
306.611	0.2221
306.958	0.2212
307.304	0.2186
307.651	0.2178
307.997	0.2162
308.343	0.2134
308.689	0.2115
309.035	0.2108
309.381	0.2106
309.727	0.2078
310.073	0.2063
310.419	0.2058
310.764	0.2044
311.11	0.2039
311.455	0.2028
311.801	0.2025
312.146	0.2016
312.491	0.2003
312.837	0.1998
313.182	0.1997
313.527	0.2005
313.872	0.1986
314.216	0.1984
314.561	0.1986
314.906	0.1984
315.251	0.1983
315.595	0.1993
315.94	0.1991
316.284	0.199
316.628	0.1998
316.972	0.2005
317.317	0.2001
317.661	0.2002
318.005	0.2018
318.348	0.2022
318.692	0.2035
319.036	0.2034
319.38	0.2042
319.723	0.2049
320.067	0.2064
320.41	0.2071
320.754	0.2084
321.097	0.2098
321.44	0.2104
321.783	0.2118
322.126	0.2134
322.469	0.2138
322.812	0.2149
323.155	0.2164
323.498	0.2176
323.84	0.2199
324.183	0.2216
324.525	0.2236
324.868	0.2253
325.21	0.2256
325.552	0.2292
325.894	0.2295
326.236	0.2304
326.578	0.232
326.92	0.2341
327.262	0.2358
327.604	0.2381
327.946	0.2394
328.287	0.2417
328.629	0.2429
328.97	0.2452
329.312	0.2464
329.653	0.2482
329.994	0.2506
330.335	0.252
330.676	0.2545
331.017	0.2558
331.358	0.2582
331.699	0.2606
332.04	0.2622
332.38	0.2633
332.721	0.2651
333.061	0.2678
333.402	0.2697
333.742	0.2714
334.083	0.2735
334.423	0.2746
334.763	0.2763
335.103	0.2789
335.443	0.279
335.783	0.2809
336.123	0.2826
336.462	0.284
336.802	0.2866
337.141	0.2875
337.481	0.2882
337.82	0.2902
338.16	0.2912
338.499	0.2942
338.838	0.2948
339.177	0.2971
339.516	0.2992
339.855	0.2991
340.194	0.3001
340.533	0.3027
340.872	0.303
341.21	0.3042
341.549	0.3055
341.887	0.3068
342.226	0.307
342.564	0.3083
342.902	0.3095
343.24	0.3101
343.578	0.3109
343.916	0.3114
344.254	0.3114
344.592	0.3121
344.93	0.3119
345.268	0.3127
345.605	0.3119
345.943	0.3131
346.28	0.313
346.618	0.3137
346.955	0.3136
347.292	0.3141
347.629	0.3139
347.966	0.3147
348.303	0.3146
348.64	0.3148
348.977	0.315
349.314	0.3151
349.65	0.3146
349.987	0.3152
350.324	0.3154
350.66	0.3149
350.996	0.3138
351.333	0.3139
351.669	0.3127
352.005	0.3115
352.341	0.3104
352.677	0.3096
353.013	0.3085
353.349	0.3078
353.685	0.3067
354.02	0.3039
354.356	0.3036
354.691	0.3026
355.027	0.3005
355.362	0.3009
355.697	0.2995
356.033	0.299
356.368	0.2966
356.703	0.2959
357.038	0.294
357.373	0.293
357.707	0.2914
358.042	0.2903
358.377	0.2905
358.711	0.2885
359.046	0.2863
359.38	0.2861
359.715	0.2844
360.049	0.2831
360.383	0.2813
360.717	0.2806
361.051	0.2783
361.385	0.2767
361.719	0.2743
362.053	0.2725
362.387	0.2708
362.72	0.2683
363.054	0.2655
363.387	0.2636
363.721	0.2624
364.054	0.2588
364.387	0.2574
364.721	0.256
365.054	0.2522
365.387	0.251
365.72	0.2478
366.053	0.246
366.385	0.245
366.718	0.2426
367.051	0.2412
367.383	0.2396
367.716	0.2377
368.048	0.2364
368.381	0.2343
368.713	0.2326
369.045	0.2311
369.377	0.2287
369.709	0.2274
370.041	0.2268
370.373	0.2241
370.705	0.2214
371.037	0.22
371.368	0.2177
371.7	0.2172
372.031	0.2144
372.363	0.212
372.694	0.209
373.025	0.2065
373.356	0.2048
373.688	0.2019
374.019	0.1992
374.35	0.197
374.68	0.1944
375.011	0.1926
375.342	0.1897
375.673	0.1872
376.003	0.1851
376.334	0.1832
376.664	0.1797
376.995	0.179
377.325	0.1754
377.655	0.1746
377.985	0.1728
378.315	0.1709
378.645	0.1696
378.975	0.168
379.305	0.1659
379.635	0.1652
379.964	0.1631
380.294	0.1608
380.623	0.1599
380.953	0.1584
381.282	0.1561
381.611	0.1539
381.941	0.1525
382.27	0.1514
382.599	0.1493
382.928	0.1466
383.257	0.1465
383.585	0.1438
383.914	0.1422
384.243	0.1399
384.571	0.1382
384.9	0.1349
385.228	0.134
385.557	0.1306
385.885	0.1295
386.213	0.127
386.541	0.1256
386.869	0.1237
387.197	0.1212
387.525	0.1195
387.853	0.1166
388.181	0.1159
388.508	0.1138
388.836	0.112
389.164	0.1105
389.491	0.1091
389.818	0.1075
390.146	0.1056
390.473	0.105
390.8	0.1032
391.127	0.1012
391.454	0.0999
391.781	0.0989
392.108	0.0975
392.435	0.096
392.761	0.0948
393.088	0.094
393.415	0.0929
393.741	0.0919
394.067	0.0906
394.394	0.0899
394.72	0.0883
395.046	0.0872
395.372	0.0863
395.698	0.0856
396.024	0.0836
396.35	0.0828
396.676	0.0811
397.001	0.0801
397.327	0.079
397.653	0.0781
397.978	0.0765
398.303	0.0758
398.629	0.0739
398.954	0.073
399.279	0.0725
399.604	0.0719
399.929	0.071
400.254	0.0701
400.579	0.0688
400.904	0.0679
401.229	0.0671
401.553	0.0664
401.878	0.0653
402.202	0.0646
402.527	0.0645
402.851	0.0641
403.175	0.0633
403.5	0.0619
403.824	0.062
404.148	0.0616
404.472	0.06
404.796	0.0606
405.119	0.0596
405.443	0.0594
405.767	0.0584
406.09	0.058
406.414	0.0578
406.737	0.0574
407.061	0.0578
407.384	0.0566
407.707	0.0568
408.03	0.0559
408.353	0.056
408.676	0.0559
408.999	0.0561
409.322	0.0552
409.645	0.0554
409.968	0.0552
410.29	0.0548
410.613	0.0546
410.935	0.0543
411.258	0.0541
411.58	0.0538
411.902	0.054
412.224	0.0535
412.546	0.0538
412.868	0.0536
413.19	0.0534
413.512	0.0528
413.834	0.052
414.156	0.0524
414.477	0.0535
414.799	0.0526
415.121	0.0534
415.442	0.0529
415.763	0.0527
416.085	0.0527
416.406	0.0519
416.727	0.0525
417.048	0.0524
417.369	0.0523
417.69	0.0518
418.011	0.0515
418.331	0.0523
418.652	0.0522
418.973	0.0524
419.293	0.0518
419.614	0.0523
419.934	0.0531
420.254	0.0528
420.574	0.0522
420.895	0.0526
421.215	0.0521
421.535	0.0517
421.855	0.0515
422.174	0.0516
422.494	0.0516
422.814	0.052
423.134	0.0517
423.453	0.0517
423.773	0.0521
424.092	0.0517
424.411	0.0512
424.731	0.0518
425.05	0.0513
425.369	0.0516
425.688	0.0526
426.007	0.0514
426.326	0.0514
426.644	0.0523
426.963	0.0517
427.282	0.0522
427.6	0.0521
427.919	0.0515
428.237	0.0521
428.556	0.0519
428.874	0.0521
429.192	0.0525
429.51	0.0523
429.828	0.0518
430.146	0.0525
430.464	0.0518
430.782	0.052
431.1	0.0517
431.418	0.0516
431.735	0.0518
432.053	0.0522
432.37	0.0518
432.688	0.0521
433.005	0.0521
433.322	0.052
433.639	0.0521
433.957	0.0522
434.274	0.0512
434.591	0.0515
434.907	0.0513
435.224	0.0517
435.541	0.0518
435.858	0.0522
436.174	0.0527
436.491	0.0512
436.807	0.0508
437.124	0.0514
437.44	0.0513
437.756	0.052
438.072	0.0517
438.388	0.0517
438.704	0.0512
439.02	0.0512
439.336	0.051
439.652	0.051
439.968	0.05
440.283	0.0495
440.599	0.05
440.914	0.051
441.23	0.052
441.545	0.0504
441.86	0.0501
442.175	0.0503
442.491	0.0511
442.806	0.0503
443.121	0.0497
443.435	0.0502
443.75	0.0507
444.065	0.0501
444.38	0.0501
444.694	0.0511
445.009	0.0501
445.323	0.0504
445.638	0.0489
445.952	0.0499
446.266	0.0498
446.58	0.0498
446.894	0.0491
447.208	0.0489
447.522	0.0494
447.836	0.049
448.15	0.0489
448.464	0.0487
448.777	0.049
449.091	0.0484
449.404	0.0479
449.718	0.0476
450.031	0.0476
450.345	0.0482
450.658	0.0483
450.971	0.0477
451.284	0.0476
451.597	0.0474
451.91	0.0474
452.223	0.0475
452.535	0.0463
452.848	0.0471
453.161	0.0457
453.473	0.0466
453.786	0.0458
454.098	0.0463
454.411	0.0466
454.723	0.0453
455.035	0.045
455.347	0.0447
455.659	0.0448
455.971	0.0457
456.283	0.0451
456.595	0.0448
456.907	0.0446
457.218	0.0448
457.53	0.043
457.841	0.0436
458.153	0.0444
458.464	0.044
458.776	0.0434
459.087	0.043
459.398	0.0431
459.709	0.0426
460.02	0.043
460.331	0.0417
460.642	0.0424
460.953	0.0416
461.263	0.0413
461.574	0.0417
461.885	0.0409
462.195	0.0405
462.506	0.0402
462.816	0.0404
463.126	0.0407
463.437	0.0403
463.747	0.0395
464.057	0.0395
464.367	0.0395
464.677	0.0388
464.987	0.0387
465.296	0.0393
465.606	0.0372
465.916	0.0387
466.225	0.0382
466.535	0.0374
466.844	0.0382
467.154	0.0375
467.463	0.0365
467.772	0.0366
468.081	0.0367
468.39	0.0359
468.699	0.0364
469.008	0.0363
469.317	0.0353
469.626	0.0345
469.935	0.0343
470.243	0.0336
470.552	0.0343
470.86	0.0337
471.169	0.0334
471.477	0.0337
471.785	0.0338
472.093	0.033
472.402	0.0326
472.71	0.0334
473.018	0.0323
473.326	0.0314
473.633	0.0323
473.941	0.032
474.249	0.0305
474.556	0.0321
474.864	0.0309
475.171	0.0312
475.479	0.0308
475.786	0.0303
476.094	0.0305
476.401	0.0294
476.708	0.0299
477.015	0.0295
477.322	0.0297
477.629	0.0294
477.936	0.0286
478.242	0.0281
478.549	0.0277
478.856	0.0283
479.162	0.0273
479.469	0.0277
479.775	0.0276
480.081	0.0269
480.388	0.0265
480.694	0.0262
481	0.0263
481.306	0.0256
481.612	0.0254
481.918	0.0261
482.224	0.0256
482.53	0.0254
482.835	0.0245
483.141	0.0244
483.446	0.0246
483.752	0.0245
484.057	0.0239
484.363	0.024
484.668	0.0231
484.973	0.0223
485.278	0.023
485.583	0.0226
485.888	0.0229
486.193	0.0218
486.498	0.0219
486.803	0.0217
487.107	0.0212
487.412	0.0212
487.717	0.0213
488.021	0.0206
488.325	0.0217
488.63	0.0212
488.934	0.0214
489.238	0.0206
489.542	0.0187
489.846	0.0201
490.15	0.0202
490.454	0.0192
490.758	0.0186
491.062	0.0188
491.366	0.0189
491.669	0.0177
491.973	0.0196
492.276	0.0175
492.58	0.0166
492.883	0.0167
493.186	0.0172
493.489	0.0169
493.792	0.0158
494.096	0.0166
494.399	0.0161
494.701	0.0162
495.004	0.015
495.307	0.0147
495.61	0.0148
495.912	0.0147
496.215	0.0138
496.517	0.0136
496.82	0.0142
497.122	0.0136
497.424	0.0144
497.727	0.0141
498.029	0.0126
498.331	0.0138
498.633	0.0141
498.935	0.0139
499.237	0.0131
499.538	0.0121
499.84	0.0123
500.142	0.0123
500.443	0.0114
500.745	0.0114
501.046	0.011
501.348	0.0112
501.649	0.0106
501.95	0.0102
502.251	0.0106
502.552	0.0107
502.853	0.0102
503.154	0.0095
503.455	0.0104
503.756	0.0097
504.057	0.0116
504.357	0.0086
504.658	0.0102
504.958	0.0102
505.259	0.0097
505.559	0.0092
505.859	0.0089
506.16	0.0092
506.46	0.0089
506.76	0.0087
507.06	0.0086
507.36	0.0084
507.66	0.008
507.96	0.0087
508.259	0.0084
508.559	0.0091
508.859	0.0088
509.158	0.0078
509.457	0.0066
509.757	0.008
510.056	0.0077
510.355	0.0077
510.655	0.0063
510.954	0.0073
511.253	0.0072
511.552	0.0065
511.851	0.0064
512.149	0.0052
512.448	0.0057
512.747	0.006
513.045	0.0051
513.344	0.0054
513.642	0.0053
513.941	0.0051
514.239	0.0048
514.537	0.0037
514.836	0.0046
515.134	0.0022
515.432	0.0055
515.73	0.0045
516.028	0.0049
516.326	0.0053
516.623	0.0047
516.921	0.0027
517.219	0.0044
517.516	0.0045
517.814	0.0038
518.111	0.0049
518.409	0.0027
518.706	0.0031
519.003	0.0044
519.3	0.0035
519.597	0.0024
519.894	0.0036
520.191	0.0036
520.488	0.003
520.785	0.0029
521.082	0.003
521.378	0.0019
521.675	0.0024
521.971	0.0018
522.268	0.0022
522.564	0.0025
522.861	0.0021
523.157	0.0028
523.453	0.0035
523.749	0.0022
524.045	0.0018
524.341	0.0027
524.637	0.0017
524.933	0.0024
525.229	0.0023
525.524	0.0005
525.82	0.0016
526.115	0.0002
526.411	0.003
526.706	0.0017
527.002	0.0029
527.297	0.0008
527.592	0.0014
527.887	0.0032
528.182	0.0018
528.477	0.0024
528.772	0.0015
529.067	0.0015
529.362	0.0016
529.657	0.0014
529.951	0.0015
530.246	0.0012
530.54	0.0016
530.835	0.0016
531.129	0.0011
531.423	0.001
531.718	0.0016
532.012	0.0008
532.306	0.001
532.6	-0.0003
532.894	0.0012
533.188	0.001
533.482	0.0004
533.775	0.0008
534.069	0.0004
534.363	-0.0003
534.656	-0.0005
534.95	0.0005
535.243	-0.0004
535.536	0.0003
535.83	-0.0018
536.123	-0.0002
536.416	-0.0008
536.709	-0.0009
537.002	-0.0003
537.295	-0.0005
537.588	-0.0002
537.881	-0.0006
538.173	-0.0006
538.466	-0.0005
538.759	0.0002
539.051	0.0007
539.344	-0.0004
539.636	0.0004
539.928	0.0007
540.22	0.0004
540.513	-0.0003
540.805	-0.0002
541.097	-0.0012
541.389	0
541.681	0.0007
541.972	0.0014
542.264	0.0011
542.556	0.001
542.847	0.0012
543.139	0.0009
543.431	0.0003
543.722	0.0008
544.013	0.0009
544.305	0.0001
544.596	-0.0001
544.887	0.0009
545.178	0.0006
545.469	-0.0013
545.76	-0.0008
546.051	0.0013
546.342	-0.0005
546.632	-0.0012
546.923	-0.0011
547.214	-0.0006
547.504	-0.0001
547.795	-0.0007
548.085	-0.0012
548.375	-0.0008
548.666	-0.0017
548.956	-0.0007
549.246	-0.0003
549.536	0.0003
549.826	-0.0004
550.116	0
550.406	-0.0007
550.695	-0.0021
550.985	-0.0001
551.275	-0.0007
551.564	-0.0011
551.854	0.0002
552.143	-0.0006
552.433	-0.0008
552.722	-0.0015
553.011	0.0007
553.3	-0
553.589	0.0005
553.879	-0.0005
554.167	-0.0013
554.456	0.0005
554.745	-0.0003
555.034	-0.0011
555.323	0.001
555.611	0.0003
555.9	-0.0001
556.188	-0.0014
556.477	-0.0001
556.765	-0.002
557.053	-0.0005
557.342	-0.0004
557.63	-0.0007
557.918	0.0002
558.206	0.0015
558.494	-0.0003
558.782	0.0004
559.069	0.0013
559.357	0.0007
559.645	-0.0001
559.932	0.0002
560.22	-0.0002
560.507	-0.0006
560.795	-0.0014
561.082	-0.0016
561.37	-0.0003
561.657	-0.0011
561.944	-0.0008
562.231	-0.0006
562.518	-0.001
562.805	-0.0003
563.092	-0.0001
563.379	0.0006
563.665	0.0002
563.952	-0.0006
564.239	0.0004
564.525	-0.0001
564.811	0.001
565.098	-0.0003
565.384	-0.0002
565.67	0.0009
565.957	0.0011
566.243	0.002
566.529	0.0003
566.815	0.001
567.101	0.0003
567.387	0.0002
567.672	0.0004
567.958	0.0005
568.244	0.0007
568.529	0.0003
568.815	0.0003
569.1	-0.001
569.386	-0.0006
569.671	0.0002
569.956	0.0002
570.242	-0.0001
570.527	-0.0008
570.812	0.0009
571.097	0.0004
571.382	0.0003
571.666	0.0015
571.951	-0.0001
572.236	0.0005
572.521	0.0003
572.805	-0.0005
573.09	0.0003
573.374	-0.0009
573.659	0.0004
573.943	-0.0006
574.227	-0.0009
574.511	-0.0006
574.795	-0.0003
575.079	0.0005
575.363	-0.0006
575.647	-0.0008
575.931	-0
576.215	-0.0008
576.499	-0.0005
576.782	-0.0014
577.066	-0.0007
577.349	-0.0006
577.633	-0.0005
577.916	-0.0006
578.2	-0.0004
578.483	-0.0011
578.766	-0.0006
579.049	-0.0005
579.332	0.0005
579.615	-0
579.898	0.0008
580.181	0.0005
580.464	0.001
580.746	0.0004
581.029	0.0005
581.312	0.001
581.594	0.0001
581.877	-0.0006
582.159	-0.0005
582.441	-0.001
582.724	-0.0006
583.006	0.0004
583.288	-0.0003
583.57	0.0006
583.852	0.0003
584.134	0.0007
584.416	-0.0004
584.697	0.0001
584.979	-0.0006
585.261	-0.0013
585.542	-0.0014
585.824	-0.0006
586.105	-0.0005
586.387	-0.0013
586.668	-0.0003
586.949	0.0005
587.231	0.0003
587.512	-0.0001
587.793	0.0003
588.074	-0.0008
588.355	0.0002
588.636	-0.0007
588.916	-0.0004
589.197	-0.0008
589.478	-0.0007
589.758	-0.0002
590.039	0.0007
590.319	-0.0001
590.6	0.0007
590.88	0.0006
591.16	0.0007
591.441	0.0006
591.721	0.0004
592.001	-0.0006
592.281	-0.0002
592.561	-0
592.841	0.0001
593.12	-0.001
593.4	-0.0011
593.68	-0.0018
593.959	-0.0014
594.239	-0.0013
594.518	-0.0015
594.798	-0.0003
595.077	-0.0012
595.356	-0.0011
595.636	-0.0008
595.915	-0.0006
596.194	-0.0005
596.473	-0.0005
596.752	0.0004
597.031	0.0004
597.31	0.0002
597.588	-0.0007
597.867	-0.0005
598.146	-0.0001
598.424	-0.0007
598.703	-0.0005
598.981	-0.0014
599.259	-0.0011
599.538	-0.001
599.816	-0.0002
600.094	-0.0005
600.372	-0.0022
600.65	-0.0013
600.928	-0.0009
601.206	0.0001
601.484	-0.0006
601.762	-0.0005
602.04	0.0003
602.317	-0.0002
602.595	-0.0004
602.872	-0.0003
603.15	0.001
603.427	-0.0007
603.704	-0.0012
603.982	-0.001
604.259	-0.0007
604.536	-0
604.813	-0.0007
605.09	-0.0006
605.367	-0.0006
605.644	-0.0013
605.921	-0.0011
606.197	-0.0006
606.474	-0.0008
606.751	-0.0001
607.027	-0.0007
607.304	-0.0005
607.58	-0.0009
607.856	-0.0013
608.133	-0.0015
608.409	-0.0009
608.685	-0.0006
608.961	-0.0007
609.237	-0.0005
609.513	-0.0012
609.789	-0.0008
610.065	-0.0002
610.341	-0.0004
610.616	-0.001
610.892	0.0003
611.167	0.0009
611.443	0.0005
611.718	0.0008
611.994	0.0003
612.269	0.0001
612.544	0.0001
612.819	-0.0011
613.095	-0.0003
613.37	0.0003
613.645	-0.0008
613.919	-0.0006
614.194	-0.0008
614.469	0.0003
614.744	0.0002
615.019	-0.0011
615.293	-0.001
615.568	-0.0003
615.842	-0.0007
616.116	0.0001
616.391	0.0011
616.665	0.0008
616.939	0.001
617.213	0.0008
617.488	0.0001
617.762	-0.0008
618.035	0.0003
618.309	-0.0014
618.583	0.0006
618.857	0.0007
619.131	0.001
619.404	0.0013
619.678	0.0004
619.951	0.0002
620.225	-0.0005
620.498	-0.0006
620.771	0
621.045	-0.0009
621.318	-0.001
621.591	-0.0011
621.864	-0.0007
622.137	-0.0017
622.41	-0.0014
622.683	-0.001
622.956	-0.0007
623.228	0.0005
623.501	0
623.774	-0.0003
624.046	-0.0005
624.319	-0.0014
624.591	-0.0014
624.863	-0.0005
625.136	0.0004
625.408	-0.0001
625.68	0
625.952	0.0009
626.224	0.0004
626.496	-0.0002
626.768	-0.0005
627.04	-0.0008
627.311	0.0002
627.583	-0.0003
627.855	0.0016
628.126	0.0015
628.398	0.0022
628.669	0.0027
628.941	0.0024
629.212	0.001
629.483	0.0015
629.755	-0.0002
630.026	-0.0003
630.297	0.0014
630.568	0.0002
630.839	0.0011
631.11	-0.0002
631.38	0.0009
631.651	0.0006
631.922	0.0006
632.192	0.0002
632.463	0.0003
632.733	-0
633.004	0.0001
633.274	0.0006
633.545	0.0003
633.815	-0.0006
634.085	-0.0006
634.355	-0.0025
634.625	-0.0016
634.895	-0.0022
635.165	-0.001
635.435	-0.0016
635.705	-0.0013
635.974	-0.0017
636.244	-0.0011
636.514	-0.0003
636.783	-0.0018
637.053	-0.0006
637.322	-0.0005
637.591	0
637.861	-0.0013
638.13	-0.0017
638.399	-0.0019
638.668	-0.0011
638.937	-0.0022
639.206	-0.0029
639.475	-0.0028
639.744	-0.0022
640.013	-0.0016
640.281	-0.0015
640.55	-0.002
640.819	-0.0017
641.087	-0.0016
641.356	-0.0017
641.624	-0.0007
641.892	0.0001
642.161	-0.0019
642.429	-0.001
642.697	0
642.965	0.0003
643.233	-0.0017
643.501	-0.0013
643.769	-0.0007
644.037	-0.0005
644.305	-0.0023
644.572	-0.0009
644.84	-0.0022
645.108	-0.0025
645.375	-0.0027
645.643	-0.0029
645.91	-0.0015
646.177	-0.0014
646.445	-0.0007
646.712	0.0012
646.979	0.001
647.246	0.0016
647.513	0.0023
647.78	0.0001
648.047	-0
648.314	-0.0022
648.58	-0.0019
648.847	-0.0019
649.114	-0.0009
649.38	0
649.647	-0.001
649.913	-0.0018
650.18	-0.0016
650.446	-0.0004
650.712	-0.0019
650.978	-0.0018
651.245	-0.002
651.511	-0.0012
651.777	-0.0012
652.043	-0.0021
652.309	-0.0011
652.574	-0.0004
652.84	0.0003
653.106	-0.0008
653.371	0
653.637	0.0001
653.903	0.001
654.168	0.0009
654.433	0.0015
654.699	0.0006
654.964	0.0028
655.229	0.0008
655.494	0.0008
655.759	-0.0008
656.024	0.0002
656.289	-0
656.554	-0.0021
656.819	-0.0027
657.084	-0.0015
657.349	0
657.613	0.0002
657.878	-0.0004
658.142	-0.0011
658.407	-0.0008
658.671	0
658.936	-0.0007
659.2	-0.0003
659.464	-0.0006
659.728	-0.0006
659.992	-0.0015
660.256	-0.0016
660.52	-0.0011
660.784	-0.0014
661.048	-0.0005
661.312	-0.0006
661.575	0.0001
661.839	0.0007
662.103	-0.0009
662.366	-0.0006
662.63	-0.0024
662.893	-0.0009
663.156	-0.0014
663.42	-0.0023
663.683	-0.0022
663.946	-0.0031
664.209	-0.0021
664.472	-0.003
664.735	-0.0016
664.998	-0.0015
665.261	-0.0018
665.524	-0.0022
665.786	-0.0007
666.049	-0.002
666.312	-0.0016
666.574	-0.0021
666.837	-0.0018
667.099	-0.0009
667.361	-0.0014
667.624	-0.0012
667.886	-0.0023
668.148	-0.0014
668.41	-0.0016
668.672	-0.0025
668.934	-0.0013
669.196	-0.0007
669.458	0.0006
669.72	0.0008
669.982	0.0005
670.243	0.0011
670.505	0.0003
670.766	-0
671.028	-0.0005
671.289	-0.002
671.551	-0.0018
671.812	-0.0025
672.073	-0.0024
672.334	-0.0024
672.596	-0.0024
672.857	-0.0033
673.118	-0.0023
673.379	-0.0032
673.639	-0.0027
673.9	-0.0025
674.161	-0.0026
674.422	-0.0028
674.682	-0.0029
674.943	-0.0031
675.203	-0.0024
675.464	-0.0024
675.724	-0.0046
675.985	-0.0045
676.245	-0.0041
676.505	-0.003
676.765	-0.0032
677.025	-0.0036
677.285	-0.0027
677.545	-0.0024
677.805	-0.0011
678.065	-0.001
678.325	-0.0012
678.585	-0.0022
678.844	-0.003
679.104	-0.003
679.363	-0.0035
679.623	-0.0031
679.882	-0.0024
680.142	-0.0025
680.401	-0.0023
680.66	-0.0009
680.919	-0.0004
681.178	-0.0014
681.437	-0.0019
681.696	-0.0005
681.955	-0.0019
682.214	-0.0008
682.473	-0.0021
682.732	-0.0019
682.99	-0.0026
683.249	-0.0019
683.508	-0.002
683.766	-0.0015
684.024	-0.0016
684.283	-0.0015
684.541	-0.0016
684.799	-0.0018
685.058	-0.0018
685.316	-0.002
685.574	-0.0025
685.832	-0.0036
686.09	-0.0034
686.348	-0.0045
686.606	-0.0043
686.863	-0.0036
687.121	-0.0025
687.379	-0.0019
687.636	-0.0022
687.894	-0.0017
688.151	-0.0015
688.409	-0.0016
688.666	-0.0019
688.923	-0.0031
689.181	-0.0034
689.438	-0.003
689.695	-0.0035
689.952	-0.0048
690.209	-0.0045
690.466	-0.0044
690.723	-0.0035
690.979	-0.0019
691.236	-0.0031
691.493	-0.0023
691.75	-0.0021
692.006	-0.0033
692.263	-0.0037
692.519	-0.0031
692.775	-0.0026
693.032	-0.0031
693.288	-0.0024
693.544	-0.0014
693.8	-0.0021
694.056	-0.0023
694.313	-0.0023
694.568	-0.0015
694.824	-0.0033
695.08	-0.0032
695.336	-0.0036
695.592	-0.0036
695.847	-0.0028
696.103	-0.0027
696.359	-0.003
696.614	-0.0037
696.869	-0.0037
697.125	-0.0041
697.38	-0.0034
697.635	-0.0026
697.891	-0.0021
698.146	-0.0023
698.401	-0.0022
698.656	-0.0031
698.911	-0.002
699.166	-0.0018
699.42	-0.0007
699.675	-0.0017
699.93	-0.0018
700.185	-0.0017
700.439	-0.0029
700.694	-0.0024
700.948	-0.002
701.203	-0.0027
701.457	-0.0035
701.711	-0.0043
701.965	-0.0043
702.22	-0.0039
702.474	-0.0041
702.728	-0.0033
702.982	-0.0033
703.236	-0.0028
703.49	-0.0017
703.743	-0.0017
703.997	-0.0016
704.251	-0.0026
704.504	-0.0022
704.758	-0.0028
705.012	-0.0026
705.265	-0.0018
705.518	-0.0014
705.772	-0.0016
706.025	-0.0017
706.278	-0.0012
706.531	-0.0019
706.785	-0.0013
707.038	-0.0026
707.291	-0.0024
707.543	-0.0025
707.796	-0.0029
708.049	-0.0041
708.302	-0.0041
708.555	-0.0051
708.807	-0.0032
709.06	-0.0043
709.312	-0.0039
709.565	-0.0042
709.817	-0.005
710.069	-0.005
710.322	-0.006
710.574	-0.005
710.826	-0.0048
711.078	-0.0049
711.33	-0.0048
711.582	-0.0053
711.834	-0.0054
712.086	-0.0058
712.338	-0.0057
712.59	-0.0057
712.841	-0.0055
713.093	-0.0059
713.344	-0.0049
713.596	-0.0048
713.847	-0.0043
714.099	-0.0042
714.35	-0.0043
714.601	-0.0037
714.853	-0.0033
715.104	-0.0042
715.355	-0.0033
715.606	-0.0041
715.857	-0.0039
716.108	-0.0043
716.359	-0.0046
716.609	-0.0047
716.86	-0.004
717.111	-0.0036
717.361	-0.0032
717.612	-0.0029
717.863	-0.0027
718.113	-0.0016
718.363	-0.0011
718.614	-0.001
718.864	-0.0005
719.114	-0.0007
719.364	-0.0006
719.614	-0.0011
719.865	-0.0008
720.114	0.0007
720.364	-0.0003
720.614	0.0007
720.864	0.0007
721.114	-0.0005
721.364	-0.0014
721.613	-0.0006
721.863	-0.001
722.112	-0.0019
722.362	-0.002
722.611	-0.0032
722.86	-0.0025
723.11	-0.0023
723.359	-0.0019
723.608	-0.0018
723.857	-0.0013
724.106	-0.0012
724.355	-0.001
724.604	-0.0014
724.853	-0.0013
725.102	-0.0036
725.351	-0.0029
725.599	-0.003
725.848	-0.0032
726.097	-0.0013
726.345	-0.0026
726.594	-0.0041
726.842	-0.0038
727.09	-0.0048
727.339	-0.005
727.587	-0.0057
727.835	-0.0053
728.083	-0.0053
728.331	-0.0043
728.579	-0.004
728.827	-0.0041
729.075	-0.0035
729.323	-0.0036
729.571	-0.0037
729.818	-0.0036
730.066	-0.0034
730.314	-0.0028
730.561	-0.0007
730.809	-0.0011
731.056	-0.0009
731.303	-0.0007
731.551	-0.0004
731.798	-0.0006
732.045	-0.0018
732.292	-0.0001
732.539	0.0004
732.786	0.0008
733.033	-0.0003
733.28	-0.0001
733.527	-0.0008
733.774	-0.0007
734.021	-0.0031
734.267	-0.0029
734.514	-0.0033
734.76	-0.004
735.007	-0.0029
735.253	-0.0027
735.5	-0.003
735.746	-0.0028
735.992	-0.0022
736.238	-0.002
736.485	-0.0019
736.731	-0.0014
736.977	-0.0023
737.223	-0.0019
737.469	-0.0021
737.715	-0.0013
737.96	-0.0015
738.206	-0.003
738.452	-0.0017
738.697	-0.0021
738.943	-0.002
739.189	-0.0019
739.434	-0.0016
739.679	-0.0029
739.925	-0.0029
740.17	-0.004
740.415	-0.0045
740.66	-0.0057
740.906	-0.0061
741.151	-0.0039
741.396	-0.0053
741.641	-0.0049
741.886	-0.0044
742.13	-0.002
742.375	-0.0021
742.62	-0.0024
742.865	-0.0029
743.109	-0.0012
743.354	-0.0002
743.598	0.0005
743.843	0.0002
744.087	0.0004
744.331	0
744.576	0.0011
744.82	0.0009
745.064	0.0013
745.308	0.0022
745.552	0.0024
745.796	0.0009
746.04	0.0008
746.284	0.0004
746.528	0.0015
746.771	0.0024
747.015	0.0021
747.259	0.0003
747.502	-0.0006
747.746	-0.0016
747.989	-0.0006
748.233	-0.0016
748.476	-0.0003
748.719	0.0003
748.963	0.0014
749.206	0.0013
749.449	-0.0002
749.692	-0.0006
749.935	0.0007
750.178	0.0002
750.421	-0.0009
750.664	-0.0001
750.906	0.0007
751.149	0.0006
751.392	-0
751.635	-0.0004
751.877	-0.0005
752.12	-0.0007
752.362	-0.0005
752.604	-0.0003
752.847	0.0015
753.089	0.0016
753.331	0.0021
753.573	0.0011
753.816	-0.0001
754.058	-0.0022
754.3	-0.0032
754.542	-0.0029
754.783	-0.0042
755.025	-0.0037
755.267	-0.0025
755.509	-0.003
755.75	-0.0029
755.992	-0.0029
756.234	-0.0039
756.475	-0.0034
756.716	-0.0033
756.958	-0.0025
757.199	-0.0023
757.44	-0.001
757.682	-0.0009
757.923	-0.0008
758.164	0.0006
758.405	-0.0001
758.646	0.0016
758.887	0.001
759.128	0.0012
759.369	0.0006
759.609	0.0017
759.85	0.0014
760.091	0.0012
760.331	0.0009
760.572	-0.0006
760.812	-0.0007
761.053	-0.0012
761.293	-0.0004
761.533	0.0001
761.774	0.0016
762.014	0.0014
762.254	0.0011
762.494	-0.0001
762.734	0.001
762.974	-0.0002
763.214	-0.0001
763.454	-0.0004
763.694	-0.0009
763.933	-0.0021
764.173	-0.0039
764.413	-0.0033
764.652	-0.0035
764.892	-0.0036
765.131	-0.0031
765.371	-0.0032
765.61	-0.0033
765.849	-0.0036
766.089	-0.0033
766.328	-0.0031
766.567	-0.0029
766.806	-0.0031
767.045	-0.0021
767.284	-0.0038
767.523	-0.0027
767.762	-0.004
768.001	-0.0023
768.239	-0.0026
768.478	-0.0021
768.717	-0.0024
768.955	-0.0019
769.194	-0.0023
769.432	-0.0009
769.671	-0.0004
769.909	-0.0004
770.148	-0.0001
770.386	0.0001
770.624	0.0015
770.862	0.0018
771.1	0.0023
771.338	0.001
771.576	0.0001
771.814	0.0005
772.052	0.001
772.29	0.0022
772.528	0.0031
772.765	0.0043
773.003	0.005
773.24	0.0046
773.478	0.0025
773.716	0.0027
773.953	0.0019
774.19	0.0016
774.428	0.0029
774.665	0.0026
774.902	0.0034
775.139	0.0026
775.376	0.0018
775.613	0.0027
775.85	0.0023
776.087	0.0021
776.324	0.0024
776.561	0.0011
776.798	0.001
777.034	0.0007
777.271	0.0021
777.508	0.0017
777.744	0.0023
777.981	0.0036
778.217	0.003
778.454	0.0023
778.69	0.0014
778.926	0.0006
779.162	0.0005
779.399	0.0015
779.635	0.0001
779.871	0.0008
780.107	0.0001
780.343	-0.0009
780.579	-0.0002
780.814	0.0001
781.05	0
781.286	-0.0007
781.522	-0.0012
781.757	-0.0012
781.993	-0.001
782.228	-0.0015
782.464	0
782.699	-0.0015
782.934	-0.002
783.17	-0.002
783.405	-0.0015
783.64	-0.0023
783.875	-0.0035
784.11	-0.0035
784.345	-0.0021
784.58	-0.0015
784.815	-0.0008
785.05	-0.0019
785.285	-0.0026
785.52	-0.0025
785.754	-0.0025
785.989	-0.0028
786.223	-0.0042
786.458	-0.0043
786.692	-0.0028
786.927	-0.0024
787.161	-0.0023
787.396	-0.0031
787.63	-0.0031
787.864	-0.0049
788.098	-0.0055
788.332	-0.0054
788.566	-0.0038
788.8	-0.0048
789.034	-0.0031
789.268	-0.0027
789.502	-0.002
789.736	-0.0027
789.969	-0.0024
790.203	-0.0028
790.437	-0.0044
790.67	-0.0053
790.904	-0.0064
791.137	-0.0072
791.37	-0.0075
791.604	-0.0083
791.837	-0.0074
792.07	-0.0063
792.303	-0.0064
792.537	-0.006
792.77	-0.0052
793.003	-0.0052
793.236	-0.0037
793.469	-0.0042
793.701	-0.0019
793.934	-0.0017
794.167	-0.0005
794.4	-0.0014
794.632	-0.0007
794.865	-0.0003
795.097	-0.0005
795.33	-0.0022
795.562	-0.0002
795.795	-0.0011
796.027	0.0004
796.259	0.0006
796.491	-0.0002
796.724	-0.0001
796.956	0.0008
797.188	-0.0001
797.42	-0.0004
797.652	-0.0011
797.883	-0.0008
798.115	-0.0001
798.347	-0.0011
798.579	0.0007
798.81	0.0004
799.042	0.0006
799.274	0.0001
799.505	-0.0008
799.737	-0.0005
799.968	-0.0013
800.199	-0.0016
800.431	-0.0018
800.662	-0.0026
800.893	-0.0027
801.124	-0.0031
801.355	-0.0035
801.586	-0.003
801.817	-0.0039
802.048	-0.0046
802.279	-0.0044
802.51	-0.0021
802.741	-0.0014
802.971	-0.0011
803.202	-0.0009
803.433	-0.0009
803.663	-0.0029
803.894	-0.0044
804.124	-0.0048
804.354	-0.0045
804.585	-0.0042
804.815	-0.0037
805.045	-0.0038
805.275	-0.0039
805.506	-0.0549
805.736	-0.0212
805.966	0.1657
806.196	0.0268
