Data from 03 0.5 mM K2Cr2O7 0.3 mM BQDS 1 M H2SO4 5 min_Absorbance_0099.txt Node
Date: Tue Dec 14 01:54:45 EST 2021
User: kwabilab-user
Spectrometer: HDX00518
Trigger mode: 0
Integration Time (sec): 5.000000E-2
Scans to average: 50
Nonlinearity correction enabled: false
Boxcar width: 0
Storing dark spectrum: false
XAxis mode: Wavelengths
Number of Pixels in Spectrum: 2068
>>>>>Begin Spectral Data<<<<<
195.27	-0.0912
195.642	-0.0934
196.014	-0.0393
196.386	0.0261
196.758	-0.0645
197.129	-0.041
197.501	-0.057
197.872	-0.0233
198.244	0.0098
198.615	0.0142
198.986	0.0013
199.357	0.0325
199.728	0.0076
200.099	0.0085
200.47	-0.0101
200.841	0.0023
201.212	0.0078
201.582	0.0145
201.953	0.0193
202.323	0.01
202.694	-0.0079
203.064	-0.0135
203.434	0.0178
203.804	-0.0161
204.174	0.02
204.544	0.0046
204.914	0.0072
205.284	0.008
205.653	-0.0098
206.023	0.0046
206.393	-0.0144
206.762	0.024
207.131	-0.0088
207.501	-0.0001
207.87	0.0133
208.239	0.005
208.608	-0.0255
208.977	-0.0206
209.346	-0.0133
209.715	-0.0037
210.083	-0.0076
210.452	-0.0111
210.82	-0.0001
211.189	-0.0111
211.557	0.0173
211.925	-0.0365
212.294	-0.005
212.662	0.005
213.03	-0.015
213.398	-0.0048
213.766	0.0034
214.133	-0.0098
214.501	-0.0016
214.869	-0.0074
215.236	0.008
215.604	-0.0015
215.971	0.0113
216.338	0.0113
216.705	0.0274
217.072	0.0246
217.439	0.0176
217.806	0.0051
218.173	0.014
218.54	0.0299
218.907	0.0306
219.273	0.0356
219.64	0.0214
220.006	0.0502
220.373	0.0459
220.739	0.0765
221.105	0.0868
221.471	0.0951
221.837	0.1196
222.203	0.1436
222.569	0.1506
222.935	0.1654
223.3	0.1642
223.666	0.1878
224.031	0.2378
224.397	0.236
224.762	0.2726
225.127	0.3043
225.493	0.3107
225.858	0.3343
226.223	0.343
226.588	0.3902
226.952	0.4049
227.317	0.4275
227.682	0.444
228.046	0.4561
228.411	0.4744
228.775	0.4884
229.14	0.5131
229.504	0.5287
229.868	0.5433
230.232	0.5454
230.596	0.5503
230.96	0.5748
231.324	0.5671
231.688	0.5874
232.052	0.6215
232.415	0.6083
232.779	0.6135
233.142	0.6204
233.505	0.627
233.869	0.6338
234.232	0.6426
234.595	0.6408
234.958	0.6437
235.321	0.6449
235.684	0.655
236.047	0.6517
236.409	0.6397
236.772	0.6576
237.134	0.6564
237.497	0.6495
237.859	0.6598
238.222	0.6524
238.584	0.6546
238.946	0.6514
239.308	0.6486
239.67	0.6435
240.032	0.642
240.393	0.6515
240.755	0.6416
241.117	0.6425
241.478	0.6352
241.84	0.6387
242.201	0.6329
242.562	0.6413
242.924	0.6372
243.285	0.618
243.646	0.6336
244.007	0.6306
244.368	0.6331
244.728	0.6281
245.089	0.6272
245.45	0.6259
245.81	0.6263
246.171	0.6207
246.531	0.6253
246.891	0.621
247.252	0.6213
247.612	0.6217
247.972	0.6268
248.332	0.6251
248.692	0.6264
249.051	0.6217
249.411	0.6212
249.771	0.6172
250.13	0.6139
250.49	0.6201
250.849	0.6092
251.208	0.6108
251.568	0.6118
251.927	0.6184
252.286	0.6201
252.645	0.623
253.004	0.6226
253.363	0.6168
253.721	0.6251
254.08	0.6152
254.439	0.6144
254.797	0.6195
255.155	0.6084
255.514	0.6195
255.872	0.6166
256.23	0.6103
256.588	0.6115
256.946	0.6122
257.304	0.612
257.662	0.6129
258.02	0.6126
258.377	0.6011
258.735	0.6062
259.093	0.6028
259.45	0.6026
259.807	0.6048
260.165	0.6033
260.522	0.6063
260.879	0.5947
261.236	0.5981
261.593	0.5973
261.95	0.5882
262.306	0.5921
262.663	0.5888
263.02	0.5868
263.376	0.5843
263.733	0.5929
264.089	0.5872
264.445	0.5768
264.802	0.5771
265.158	0.575
265.514	0.5659
265.87	0.569
266.226	0.568
266.581	0.5715
266.937	0.5641
267.293	0.565
267.648	0.5596
268.004	0.5561
268.359	0.5524
268.714	0.5494
269.07	0.5433
269.425	0.5438
269.78	0.5381
270.135	0.5353
270.49	0.5349
270.844	0.5326
271.199	0.5331
271.554	0.5298
271.908	0.5216
272.263	0.5246
272.617	0.5188
272.972	0.512
273.326	0.5099
273.68	0.5044
274.034	0.5037
274.388	0.5033
274.742	0.4971
275.096	0.4979
275.45	0.4911
275.803	0.4888
276.157	0.4873
276.51	0.48
276.864	0.4779
277.217	0.4716
277.571	0.4706
277.924	0.469
278.277	0.4615
278.63	0.4556
278.983	0.4543
279.336	0.4479
279.688	0.4429
280.041	0.4407
280.394	0.437
280.746	0.4335
281.099	0.4271
281.451	0.4215
281.803	0.4202
282.156	0.4122
282.508	0.4141
282.86	0.4074
283.212	0.3982
283.564	0.4005
283.916	0.3964
284.267	0.3886
284.619	0.3866
284.971	0.3808
285.322	0.3791
285.673	0.3744
286.025	0.3672
286.376	0.365
286.727	0.359
287.078	0.3558
287.429	0.3528
287.78	0.3482
288.131	0.3457
288.482	0.3406
288.833	0.3344
289.183	0.3296
289.534	0.3257
289.884	0.3233
290.235	0.3188
290.585	0.3151
290.935	0.309
291.285	0.3043
291.635	0.3007
291.985	0.2983
292.335	0.2943
292.685	0.2923
293.035	0.2878
293.384	0.282
293.734	0.2778
294.083	0.2765
294.433	0.2712
294.782	0.2666
295.131	0.2622
295.48	0.2574
295.829	0.2553
296.179	0.2524
296.527	0.2469
296.876	0.2444
297.225	0.2396
297.574	0.237
297.922	0.2342
298.271	0.2313
298.619	0.2276
298.968	0.2236
299.316	0.2205
299.664	0.2173
300.012	0.2154
300.36	0.2115
300.708	0.2085
301.056	0.2053
301.404	0.2021
301.752	0.2014
302.099	0.197
302.447	0.195
302.794	0.1927
303.142	0.1896
303.489	0.1865
303.836	0.1855
304.183	0.1829
304.531	0.1803
304.878	0.1785
305.224	0.178
305.571	0.1745
305.918	0.1733
306.265	0.1725
306.611	0.1705
306.958	0.1697
307.304	0.1667
307.651	0.1661
307.997	0.164
308.343	0.1642
308.689	0.1629
309.035	0.1619
309.381	0.1615
309.727	0.1596
310.073	0.1598
310.419	0.1579
310.764	0.1567
311.11	0.1568
311.455	0.1567
311.801	0.1564
312.146	0.155
312.491	0.1553
312.837	0.1541
313.182	0.1556
313.527	0.1547
313.872	0.155
314.216	0.1548
314.561	0.1541
314.906	0.1546
315.251	0.1554
315.595	0.1556
315.94	0.1559
316.284	0.157
316.628	0.1569
316.972	0.157
317.317	0.1582
317.661	0.1576
318.005	0.1588
318.348	0.1597
318.692	0.1614
319.036	0.1609
319.38	0.1618
319.723	0.1631
320.067	0.1647
320.41	0.1662
320.754	0.1669
321.097	0.1679
321.44	0.1685
321.783	0.1701
322.126	0.1718
322.469	0.1726
322.812	0.1741
323.155	0.1751
323.498	0.1765
323.84	0.1783
324.183	0.1799
324.525	0.1822
324.868	0.1836
325.21	0.1832
325.552	0.1868
325.894	0.1872
326.236	0.189
326.578	0.1902
326.92	0.1918
327.262	0.1941
327.604	0.1954
327.946	0.1977
328.287	0.1992
328.629	0.201
328.97	0.2026
329.312	0.2041
329.653	0.2057
329.994	0.2075
330.335	0.2086
330.676	0.2122
331.017	0.213
331.358	0.2155
331.699	0.2175
332.04	0.2187
332.38	0.2202
332.721	0.2212
333.061	0.2243
333.402	0.2259
333.742	0.2282
334.083	0.2285
334.423	0.2307
334.763	0.2325
335.103	0.2336
335.443	0.2355
335.783	0.2365
336.123	0.2379
336.462	0.2398
336.802	0.2425
337.141	0.243
337.481	0.244
337.82	0.2463
338.16	0.2467
338.499	0.2489
338.838	0.2497
339.177	0.2521
339.516	0.2529
339.855	0.254
340.194	0.2554
340.533	0.2563
340.872	0.2578
341.21	0.2582
341.549	0.2592
341.887	0.2608
342.226	0.2619
342.564	0.2633
342.902	0.2636
343.24	0.2638
343.578	0.2646
343.916	0.2651
344.254	0.2657
344.592	0.2658
344.93	0.266
345.268	0.2667
345.605	0.2664
345.943	0.2679
346.28	0.2684
346.618	0.2689
346.955	0.2684
347.292	0.2678
347.629	0.2688
347.966	0.2682
348.303	0.2698
348.64	0.2699
348.977	0.2692
349.314	0.2709
349.65	0.27
349.987	0.2696
350.324	0.2705
350.66	0.2706
350.996	0.269
351.333	0.2685
351.669	0.2685
352.005	0.2679
352.341	0.2669
352.677	0.2655
353.013	0.2655
353.349	0.2638
353.685	0.2625
354.02	0.2619
354.356	0.2607
354.691	0.2593
355.027	0.2583
355.362	0.2581
355.697	0.2569
356.033	0.2557
356.368	0.2549
356.703	0.2543
357.038	0.253
357.373	0.2516
357.707	0.251
358.042	0.2503
358.377	0.249
358.711	0.2475
359.046	0.2456
359.38	0.246
359.715	0.2448
360.049	0.2429
360.383	0.2425
360.717	0.24
361.051	0.2392
361.385	0.2381
361.719	0.2349
362.053	0.2342
362.387	0.2323
362.72	0.2295
363.054	0.2284
363.387	0.227
363.721	0.2245
364.054	0.2228
364.387	0.2209
364.721	0.2195
365.054	0.2167
365.387	0.215
365.72	0.2128
366.053	0.2114
366.385	0.2097
366.718	0.2077
367.051	0.2061
367.383	0.205
367.716	0.204
368.048	0.2024
368.381	0.2006
368.713	0.1987
369.045	0.1981
369.377	0.1958
369.709	0.1953
370.041	0.1945
370.373	0.1922
370.705	0.1894
371.037	0.1881
371.368	0.1871
371.7	0.1861
372.031	0.1827
372.363	0.1815
372.694	0.1783
373.025	0.177
373.356	0.1747
373.688	0.1725
374.019	0.1701
374.35	0.1679
374.68	0.1663
375.011	0.1642
375.342	0.1618
375.673	0.1599
376.003	0.1578
376.334	0.1561
376.664	0.1538
376.995	0.1526
377.325	0.1491
377.655	0.1488
377.985	0.1467
378.315	0.1458
378.645	0.1441
378.975	0.1427
379.305	0.1405
379.635	0.1405
379.964	0.1391
380.294	0.1362
380.623	0.136
380.953	0.1341
381.282	0.1326
381.611	0.1304
381.941	0.1297
382.27	0.128
382.599	0.1263
382.928	0.1249
383.257	0.123
383.585	0.1216
383.914	0.1205
384.243	0.118
384.571	0.1161
384.9	0.1144
385.228	0.1129
385.557	0.1106
385.885	0.1089
386.213	0.1068
386.541	0.1058
386.869	0.1041
387.197	0.1019
387.525	0.1005
387.853	0.0982
388.181	0.0971
388.508	0.0957
388.836	0.0942
389.164	0.092
389.491	0.0915
389.818	0.09
390.146	0.0883
390.473	0.0877
390.8	0.0863
391.127	0.0845
391.454	0.0838
391.781	0.0822
392.108	0.0812
392.435	0.0801
392.761	0.0788
393.088	0.0782
393.415	0.0774
393.741	0.0765
394.067	0.0752
394.394	0.0746
394.72	0.0734
395.046	0.0725
395.372	0.0716
395.698	0.0708
396.024	0.0702
396.35	0.0688
396.676	0.0675
397.001	0.0662
397.327	0.0651
397.653	0.0649
397.978	0.0635
398.303	0.0627
398.629	0.0607
398.954	0.0598
399.279	0.0597
399.604	0.0593
399.929	0.0582
400.254	0.0577
400.579	0.0566
400.904	0.0559
401.229	0.0551
401.553	0.055
401.878	0.054
402.202	0.0533
402.527	0.0524
402.851	0.0525
403.175	0.0518
403.5	0.0516
403.824	0.0507
404.148	0.0509
404.472	0.0494
404.796	0.0494
405.119	0.049
405.443	0.0485
405.767	0.0476
406.09	0.048
406.414	0.0475
406.737	0.0475
407.061	0.0467
407.384	0.0467
407.707	0.046
408.03	0.0463
408.353	0.0468
408.676	0.046
408.999	0.0454
409.322	0.0453
409.645	0.0451
409.968	0.0452
410.29	0.0444
410.613	0.0456
410.935	0.0444
411.258	0.0448
411.58	0.044
411.902	0.0445
412.224	0.0438
412.546	0.0442
412.868	0.0433
413.19	0.0441
413.512	0.0438
413.834	0.043
414.156	0.0433
414.477	0.0437
414.799	0.0433
415.121	0.0443
415.442	0.0433
415.763	0.0435
416.085	0.0432
416.406	0.0433
416.727	0.044
417.048	0.0433
417.369	0.0428
417.69	0.0426
418.011	0.0429
418.331	0.0432
418.652	0.0429
418.973	0.0433
419.293	0.0432
419.614	0.0438
419.934	0.0439
420.254	0.0431
420.574	0.0439
420.895	0.0435
421.215	0.0426
421.535	0.0429
421.855	0.0427
422.174	0.0427
422.494	0.0426
422.814	0.0427
423.134	0.043
423.453	0.0436
423.773	0.0431
424.092	0.0431
424.411	0.0429
424.731	0.043
425.05	0.043
425.369	0.0428
425.688	0.0431
426.007	0.0427
426.326	0.0429
426.644	0.0431
426.963	0.044
427.282	0.0438
427.6	0.0429
427.919	0.0424
428.237	0.0434
428.556	0.0434
428.874	0.0433
429.192	0.0436
429.51	0.0439
429.828	0.0432
430.146	0.0438
430.464	0.0429
430.782	0.0432
431.1	0.0436
431.418	0.0434
431.735	0.0433
432.053	0.0437
432.37	0.0437
432.688	0.0438
433.005	0.0436
433.322	0.0442
433.639	0.0435
433.957	0.0446
434.274	0.0435
434.591	0.0433
434.907	0.0435
435.224	0.0435
435.541	0.0432
435.858	0.0445
436.174	0.0442
436.491	0.0432
436.807	0.0419
437.124	0.043
437.44	0.0437
437.756	0.0426
438.072	0.0437
438.388	0.0436
438.704	0.0433
439.02	0.0434
439.336	0.0425
439.652	0.0425
439.968	0.0422
440.283	0.0415
440.599	0.0422
440.914	0.0431
441.23	0.0434
441.545	0.0424
441.86	0.0421
442.175	0.0427
442.491	0.0427
442.806	0.0423
443.121	0.0422
443.435	0.042
443.75	0.0416
444.065	0.0417
444.38	0.0419
444.694	0.0423
445.009	0.0425
445.323	0.0418
445.638	0.0411
445.952	0.0418
446.266	0.0418
446.58	0.0413
446.894	0.0417
447.208	0.0413
447.522	0.0409
447.836	0.0411
448.15	0.0406
448.464	0.0409
448.777	0.0408
449.091	0.0405
449.404	0.0401
449.718	0.0404
450.031	0.0403
450.345	0.0406
450.658	0.0406
450.971	0.0405
451.284	0.0399
451.597	0.0392
451.91	0.0396
452.223	0.0393
452.535	0.039
452.848	0.0397
453.161	0.0382
453.473	0.0388
453.786	0.0387
454.098	0.0383
454.411	0.0385
454.723	0.0377
455.035	0.0377
455.347	0.0374
455.659	0.0376
455.971	0.0387
456.283	0.0377
456.595	0.0377
456.907	0.0379
457.218	0.0374
457.53	0.0357
457.841	0.037
458.153	0.0365
458.464	0.0364
458.776	0.0371
459.087	0.037
459.398	0.0366
459.709	0.036
460.02	0.0362
460.331	0.0346
460.642	0.0359
460.953	0.0354
461.263	0.0346
461.574	0.0343
461.885	0.0343
462.195	0.0339
462.506	0.0343
462.816	0.0335
463.126	0.0343
463.437	0.0335
463.747	0.0331
464.057	0.0326
464.367	0.0323
464.677	0.0325
464.987	0.0319
465.296	0.0321
465.606	0.0315
465.916	0.0315
466.225	0.0316
466.535	0.0317
466.844	0.0318
467.154	0.0319
467.463	0.03
467.772	0.0302
468.081	0.0304
468.39	0.0299
468.699	0.0301
469.008	0.0289
469.317	0.0284
469.626	0.0281
469.935	0.0284
470.243	0.0285
470.552	0.0284
470.86	0.0286
471.169	0.0275
471.477	0.0289
471.785	0.028
472.093	0.0275
472.402	0.0269
472.71	0.0268
473.018	0.0266
473.326	0.0265
473.633	0.0269
473.941	0.0261
474.249	0.0257
474.556	0.0261
474.864	0.0257
475.171	0.0254
475.479	0.0255
475.786	0.0246
476.094	0.0251
476.401	0.0242
476.708	0.0248
477.015	0.025
477.322	0.0239
477.629	0.0238
477.936	0.0237
478.242	0.0229
478.549	0.0229
478.856	0.0228
479.162	0.0227
479.469	0.0228
479.775	0.0227
480.081	0.0221
480.388	0.0214
480.694	0.0213
481	0.0215
481.306	0.021
481.612	0.0206
481.918	0.0206
482.224	0.0198
482.53	0.0201
482.835	0.0202
483.141	0.0206
483.446	0.0198
483.752	0.0186
484.057	0.0187
484.363	0.0185
484.668	0.0188
484.973	0.0183
485.278	0.0182
485.583	0.0181
485.888	0.0182
486.193	0.0173
486.498	0.017
486.803	0.017
487.107	0.0175
487.412	0.0165
487.717	0.0165
488.021	0.0159
488.325	0.017
488.63	0.0167
488.934	0.0166
489.238	0.0162
489.542	0.0154
489.846	0.0151
490.15	0.0152
490.454	0.0156
490.758	0.0144
491.062	0.0148
491.366	0.0139
491.669	0.0135
491.973	0.0147
492.276	0.0134
492.58	0.0135
492.883	0.0136
493.186	0.0138
493.489	0.0127
493.792	0.0123
494.096	0.0123
494.399	0.0123
494.701	0.013
495.004	0.0114
495.307	0.0122
495.61	0.0108
495.912	0.0119
496.215	0.011
496.517	0.0112
496.82	0.011
497.122	0.0101
497.424	0.0104
497.727	0.0103
498.029	0.0094
498.331	0.0096
498.633	0.01
498.935	0.0099
499.237	0.009
499.538	0.0091
499.84	0.0092
500.142	0.0094
500.443	0.0093
500.745	0.0083
501.046	0.0079
501.348	0.008
501.649	0.0074
501.95	0.0074
502.251	0.0079
502.552	0.0079
502.853	0.0076
503.154	0.0076
503.455	0.0077
503.756	0.0068
504.057	0.0076
504.357	0.0065
504.658	0.0067
504.958	0.0074
505.259	0.0067
505.559	0.0057
505.859	0.0056
506.16	0.0056
506.46	0.0058
506.76	0.0062
507.06	0.006
507.36	0.0052
507.66	0.0054
507.96	0.0061
508.259	0.0051
508.559	0.0053
508.859	0.0054
509.158	0.005
509.457	0.0045
509.757	0.0044
510.056	0.006
510.355	0.0047
510.655	0.004
510.954	0.005
511.253	0.0043
511.552	0.0042
511.851	0.0033
512.149	0.0034
512.448	0.004
512.747	0.0038
513.045	0.0026
513.344	0.003
513.642	0.0031
513.941	0.0031
514.239	0.0032
514.537	0.0016
514.836	0.0031
515.134	0.002
515.432	0.004
515.73	0.0025
516.028	0.0023
516.326	0.0027
516.623	0.002
516.921	0.0012
517.219	0.0022
517.516	0.0014
517.814	0.0022
518.111	0.0018
518.409	0.0013
518.706	0.0014
519.003	0.0019
519.3	0.0008
519.597	0.0007
519.894	0.0012
520.191	0.002
520.488	0.0017
520.785	0.0003
521.082	0.002
521.378	0.0009
521.675	0.0007
521.971	0.0003
522.268	0.001
522.564	0.0013
522.861	0.0015
523.157	0.0015
523.453	0.0016
523.749	0.0006
524.045	0.0016
524.341	0.0011
524.637	0.0002
524.933	0.0002
525.229	0.0003
525.524	0.0004
525.82	-0
526.115	-0.001
526.411	-0.0001
526.706	0.0018
527.002	0.0008
527.297	0.0001
527.592	0.0002
527.887	0.0009
528.182	-0.0004
528.477	0.0008
528.772	0.0011
529.067	0.0001
529.362	0.0002
529.657	0.001
529.951	0
530.246	-0.0012
530.54	-0.0001
530.835	-0.0001
531.129	0.0005
531.423	-0.0004
531.718	-0.0001
532.012	-0.0008
532.306	-0.0009
532.6	-0.001
532.894	-0.0003
533.188	0.0004
533.482	0
533.775	0.0003
534.069	-0.0003
534.363	-0.0013
534.656	-0.0017
534.95	0.0004
535.243	-0.0006
535.536	0.0006
535.83	-0.002
536.123	0.0009
536.416	-0.0005
536.709	-0.0007
537.002	-0.0013
537.295	-0.0011
537.588	-0.0015
537.881	-0.0014
538.173	-0.0014
538.466	-0.0006
538.759	-0.0004
539.051	-0.0002
539.344	-0.0009
539.636	-0.0008
539.928	0.0003
540.22	-0.0008
540.513	-0.0006
540.805	-0.0007
541.097	-0.0016
541.389	-0.0002
541.681	0.0001
541.972	-0.0002
542.264	0.0006
542.556	0
542.847	0.001
543.139	0.0001
543.431	-0.0003
543.722	0.0005
544.013	0.0004
544.305	-0.0006
544.596	-0.001
544.887	0.0003
545.178	0
545.469	-0.002
545.76	-0.0012
546.051	0.0009
546.342	-0.001
546.632	-0.0014
546.923	-0.0012
547.214	-0.0005
547.504	-0.001
547.795	-0.0013
548.085	-0.0026
548.375	-0.0018
548.666	-0.0012
548.956	-0.001
549.246	-0.0004
549.536	-0.0005
549.826	-0.0006
550.116	-0.0003
550.406	-0.0013
550.695	-0.0027
550.985	-0.0004
551.275	-0.0014
551.564	-0.0022
551.854	0
552.143	-0.0017
552.433	-0.0022
552.722	-0.0031
553.011	-0.0003
553.3	-0.0014
553.589	-0.0002
553.879	-0.0004
554.167	-0.0009
554.456	0
554.745	-0.0004
555.034	-0.0006
555.323	0.0009
555.611	-0.0007
555.9	-0.0002
556.188	-0.0016
556.477	-0.0006
556.765	-0.0033
557.053	-0.0017
557.342	-0.001
557.63	-0.0001
557.918	-0.0007
558.206	0.0004
558.494	-0.0006
558.782	-0.0008
559.069	0.0002
559.357	-0.0004
559.645	-0
559.932	-0.0006
560.22	-0.0014
560.507	-0.0015
560.795	-0.0009
561.082	-0.0026
561.37	-0.0003
561.657	-0.0012
561.944	-0.0004
562.231	-0.0009
562.518	-0.0002
562.805	-0.0002
563.092	0.0002
563.379	-0.0007
563.665	0.0003
563.952	-0.0004
564.239	0.0002
564.525	0.0004
564.811	0.0012
565.098	-0.0002
565.384	-0.001
565.67	0.0003
565.957	0.0008
566.243	0.0014
566.529	-0.0001
566.815	-0.0004
567.101	0.001
567.387	0
567.672	-0.0007
567.958	0.0009
568.244	-0.0002
568.529	0.0003
568.815	-0.0007
569.1	-0.0008
569.386	-0.0018
569.671	0.0002
569.956	-0.001
570.242	-0.0005
570.527	-0.001
570.812	-0
571.097	0.0003
571.382	-0.0009
571.666	0.0002
571.951	-0.0006
572.236	-0.0007
572.521	-0.0002
572.805	-0.0012
573.09	-0.0004
573.374	-0.0016
573.659	0.0003
573.943	-0.0003
574.227	-0.0009
574.511	-0.0008
574.795	0.0002
575.079	-0.0001
575.363	-0.0014
575.647	-0.0013
575.931	-0.0001
576.215	-0.0008
576.499	-0.0008
576.782	-0.0017
577.066	0.0001
577.349	0.0004
577.633	-0.0004
577.916	-0.0008
578.2	-0.0005
578.483	-0.0007
578.766	0.0003
579.049	-0.0001
579.332	0.0014
579.615	0.0005
579.898	-0.0003
580.181	0.0006
580.464	0.0012
580.746	0.0002
581.029	-0.0001
581.312	0.0004
581.594	-0.0011
581.877	-0.0013
582.159	-0.0005
582.441	-0.0013
582.724	-0.0004
583.006	0.0007
583.288	-0
583.57	0.0008
583.852	0.0004
584.134	0.0006
584.416	0
584.697	-0
584.979	-0.0008
585.261	-0.0018
585.542	-0.0011
585.824	-0.0011
586.105	-0.0017
586.387	-0.0014
586.668	-0.0004
586.949	-0.0005
587.231	0.0009
587.512	-0.0002
587.793	0.0002
588.074	-0.001
588.355	0
588.636	0
588.916	-0.0013
589.197	0
589.478	0.0002
589.758	-0.0004
590.039	0.0001
590.319	0.0004
590.6	0.0005
590.88	0.0004
591.16	0.0006
591.441	0.0005
591.721	0.0002
592.001	-0.0007
592.281	-0.0004
592.561	0.0003
592.841	-0.001
593.12	-0.0023
593.4	-0.0008
593.68	-0.0015
593.959	-0.0013
594.239	-0.0014
594.518	-0.0004
594.798	0.0008
595.077	-0.0013
595.356	-0.0013
595.636	-0.001
595.915	0.0002
596.194	0.001
596.473	-0.0003
596.752	-0.0001
597.031	0.0006
597.31	-0.0006
597.588	-0.0005
597.867	-0.0002
598.146	-0.0008
598.424	0
598.703	0.0005
598.981	-0.0014
599.259	-0.0018
599.538	-0.0005
599.816	-0.0004
600.094	-0.0013
600.372	-0.0021
600.65	-0.0012
600.928	-0.0001
601.206	-0.0002
601.484	0.0001
601.762	-0.0001
602.04	-0.0005
602.317	-0.0009
602.595	0.0001
602.872	-0.0004
603.15	0.0007
603.427	-0.0016
603.704	-0.002
603.982	-0.0008
604.259	-0.0005
604.536	0.0003
604.813	-0.0005
605.09	-0.0007
605.367	-0.0008
605.644	-0.0017
605.921	-0.0011
606.197	-0.001
606.474	-0.0001
606.751	-0.0009
607.027	-0.0003
607.304	-0.0006
607.58	-0.001
607.856	-0.0017
608.133	-0.0022
608.409	-0.0003
608.685	-0.0012
608.961	-0.001
609.237	-0.0012
609.513	-0.0011
609.789	-0.0006
610.065	-0.0008
610.341	-0.0014
610.616	-0.0006
610.892	0.0005
611.167	0.0009
611.443	0.0006
611.718	-0.0006
611.994	-0.0001
612.269	0.0001
612.544	-0.0011
612.819	-0.0014
613.095	-0.0008
613.37	-0.0001
613.645	-0.001
613.919	-0.0009
614.194	0.0001
614.469	0.0006
614.744	-0.0003
615.019	-0.0014
615.293	-0.0003
615.568	0
615.842	-0.0005
616.116	-0.0006
616.391	0.0006
616.665	0.0002
616.939	0.0003
617.213	-0.0003
617.488	0.0005
617.762	-0.0005
618.035	-0.0002
618.309	-0.0006
618.583	-0.0002
618.857	0.001
619.131	0.0009
619.404	0.0002
619.678	0.0009
619.951	0.0001
620.225	-0.0006
620.498	-0.0008
620.771	-0.0008
621.045	-0.0016
621.318	-0.0002
621.591	-0.0015
621.864	-0.0018
622.137	-0.002
622.41	-0.0013
622.683	-0.001
622.956	-0.0004
623.228	0.0002
623.501	0.0002
623.774	-0.0006
624.046	-0.0008
624.319	-0.0011
624.591	-0.002
624.863	-0.0017
625.136	-0.0002
625.408	-0.0003
625.68	-0.0003
625.952	0.0005
626.224	0.0001
626.496	0.0008
626.768	0.0003
627.04	-0.0005
627.311	-0.0002
627.583	-0.0009
627.855	0.0008
628.126	0.0011
628.398	0.0013
628.669	0.0018
628.941	0.0019
629.212	0.0006
629.483	0.0016
629.755	-0.0002
630.026	0.0004
630.297	0.0012
630.568	0.0003
630.839	0.0007
631.11	0.0001
631.38	0.002
631.651	0.0015
631.922	0.0008
632.192	-0.0002
632.463	-0.0002
632.733	-0.0006
633.004	0.0001
633.274	-0.0001
633.545	0.0012
633.815	0.0005
634.085	-0.0008
634.355	-0.0016
634.625	-0.0014
634.895	-0.0018
635.165	-0.002
635.435	-0.0015
635.705	-0.001
635.974	-0.0014
636.244	-0.0009
636.514	-0.0004
636.783	-0.001
637.053	-0.0018
637.322	0.0002
637.591	0.0006
637.861	-0.0014
638.13	-0.0012
638.399	-0.0016
638.668	-0.0011
638.937	-0.002
639.206	-0.0024
639.475	-0.0021
639.744	-0.0019
640.013	-0.0013
640.281	-0.0004
640.55	0.0001
640.819	-0.0001
641.087	0.0004
641.356	0.0008
641.624	0.0018
641.892	0.0025
642.161	0.0019
642.429	0.0003
642.697	0.0002
642.965	-0.0005
643.233	-0.0009
643.501	-0.0014
643.769	-0.0006
644.037	-0.0004
644.305	0
644.572	0.0003
644.84	-0.0005
645.108	-0.0019
645.375	-0.0015
645.643	-0.0007
645.91	0.0016
646.177	0.0016
646.445	0.0021
646.712	0.0034
646.979	0.0042
647.246	0.0036
647.513	0.0035
647.78	0.0023
648.047	0.0017
648.314	-0
648.58	0.0002
648.847	0.0009
649.114	0.0013
649.38	0.001
649.647	-0.0001
649.913	0.0005
650.18	0.001
650.446	0.002
650.712	-0.0002
650.978	-0.0002
651.245	-0.0006
651.511	-0.0003
651.777	-0.0003
652.043	-0.0002
652.309	0.001
652.574	0.0027
652.84	0.0021
653.106	0.003
653.371	0.0014
653.637	0.0024
653.903	0.0028
654.168	0.0033
654.433	0.0052
654.699	0.0036
654.964	0.0056
655.229	0.0032
655.494	0.0024
655.759	-0.0002
656.024	0
656.289	-0
656.554	0.0004
656.819	0.0002
657.084	0.0007
657.349	0.0001
657.613	0.0004
657.878	0.0004
658.142	-0.0004
658.407	0.0005
658.671	0.0012
658.936	0.0002
659.2	0.0014
659.464	0.0011
659.728	0.0007
659.992	0.0001
660.256	-0.0001
660.52	0.0003
660.784	-0.0007
661.048	-0.0006
661.312	-0.0003
661.575	-0.0005
661.839	0.0004
662.103	-0.0002
662.366	-0.0002
662.63	-0.0012
662.893	-0.0011
663.156	-0.0008
663.42	-0.0018
663.683	-0.0025
663.946	-0.0034
664.209	-0.0031
664.472	-0.0029
664.735	-0.0022
664.998	-0.0009
665.261	-0.0014
665.524	-0.002
665.786	-0.0016
666.049	-0.0014
666.312	-0.0015
666.574	-0.0014
666.837	-0.0004
667.099	0.0004
667.361	-0.0009
667.624	-0.0009
667.886	-0.0014
668.148	-0.0004
668.41	0.0001
668.672	-0.0024
668.934	0.0009
669.196	-0.0001
669.458	0.0008
669.72	0.002
669.982	0.0007
670.243	0.0012
670.505	0.0007
670.766	0.0013
671.028	0.0006
671.289	-0.0008
671.551	-0.0004
671.812	-0.0015
672.073	-0.0005
672.334	-0.0007
672.596	-0.001
672.857	-0.0017
673.118	-0.0007
673.379	-0.0019
673.639	-0.0013
673.9	-0.0008
674.161	-0.0014
674.422	-0.0006
674.682	-0.0014
674.943	-0.001
675.203	-0.0011
675.464	-0.0009
675.724	-0.0019
675.985	-0.002
676.245	-0.0026
676.505	-0.0015
676.765	-0.0018
677.025	-0.0016
677.285	-0.001
677.545	0.001
677.805	0.001
678.065	-0.0006
678.325	-0.0001
678.585	-0.0006
678.844	-0.0021
679.104	-0.0022
679.363	-0.0022
679.623	-0.0029
679.882	-0.0023
680.142	-0.0011
680.401	-0.0017
680.66	0
680.919	0.002
681.178	0.0011
681.437	0.001
681.696	-0.0004
681.955	0.0007
682.214	0.001
682.473	0.0002
682.732	-0.0023
682.99	-0.0004
683.249	0.0004
683.508	0
683.766	-0.0018
684.024	-0.0016
684.283	-0.0006
684.541	-0.0005
684.799	-0.0004
685.058	0.0001
685.316	-0.0006
685.574	-0.0008
685.832	-0.0014
686.09	-0.0019
686.348	-0.0031
686.606	-0.0025
686.863	-0.0028
687.121	-0.0012
687.379	-0.001
687.636	-0.0006
687.894	0.0004
688.151	0.0005
688.409	-0.0001
688.666	-0.0013
688.923	-0.0015
689.181	-0.0007
689.438	-0.0017
689.695	-0.0017
689.952	-0.0031
690.209	-0.0024
690.466	-0.0031
690.723	-0.0017
690.979	-0.0006
691.236	-0.0011
691.493	-0.0007
691.75	-0.0004
692.006	-0.0004
692.263	-0.0008
692.519	-0.0011
692.775	-0.0011
693.032	-0.0008
693.288	-0.0003
693.544	-0.0003
693.8	-0.0007
694.056	-0.0008
694.313	-0.0014
694.568	-0.0008
694.824	-0.0015
695.08	-0.0019
695.336	-0.0029
695.592	-0.0032
695.847	-0.0026
696.103	-0.0016
696.359	-0.0017
696.614	-0.0021
696.869	-0.0025
697.125	-0.0035
697.38	-0.0025
697.635	-0.0012
697.891	-0.0011
698.146	0.0001
698.401	-0.0008
698.656	-0.001
698.911	-0.001
699.166	-0.0009
699.42	0.0004
699.675	0.0002
699.93	-0.0002
700.185	-0.0007
700.439	-0.0013
700.694	-0.001
700.948	-0.0016
701.203	-0.0015
701.457	-0.0021
701.711	-0.0024
701.965	-0.0028
702.22	-0.0022
702.474	-0.0027
702.728	-0.0031
702.982	-0.0022
703.236	-0.0023
703.49	-0.001
703.743	-0.0019
703.997	-0.0021
704.251	-0.0027
704.504	-0.0014
704.758	-0.0023
705.012	-0.002
705.265	-0.001
705.518	-0.0003
705.772	-0.0001
706.025	-0.0006
706.278	-0.0011
706.531	-0.0018
706.785	-0.0017
707.038	-0.0028
707.291	-0.0022
707.543	-0.0021
707.796	-0.0021
708.049	-0.0025
708.302	-0.0034
708.555	-0.0029
708.807	-0.0019
709.06	-0.0033
709.312	-0.0024
709.565	-0.0025
709.817	-0.0037
710.069	-0.0035
710.322	-0.0036
710.574	-0.0038
710.826	-0.0036
711.078	-0.0037
711.33	-0.0026
711.582	-0.0041
711.834	-0.0042
712.086	-0.0038
712.338	-0.0054
712.59	-0.0039
712.841	-0.0055
713.093	-0.0049
713.344	-0.0053
713.596	-0.0044
713.847	-0.0028
714.099	-0.003
714.35	-0.003
714.601	-0.0028
714.853	-0.0024
715.104	-0.0027
715.355	-0.002
715.606	-0.0021
715.857	-0.0017
716.108	-0.0021
716.359	-0.0012
716.609	-0.0024
716.86	-0.0022
717.111	-0.0008
717.361	-0.001
717.612	-0.0002
717.863	0.0008
718.113	0.0015
718.363	0.0008
718.614	0.0015
718.864	0.0017
719.114	0.0015
719.364	0.0013
719.614	0.0002
719.865	0.0016
720.114	0.0025
720.364	0.0026
720.614	0.0023
720.864	0.0021
721.114	0.001
721.364	0.0012
721.613	0.0016
721.863	0.0011
722.112	0.0004
722.362	0.0001
722.611	-0.0012
722.86	-0.0011
723.11	-0.0006
723.359	-0.0011
723.608	-0.0013
723.857	-0.0009
724.106	0.0003
724.355	0
724.604	0.0001
724.853	0.0004
725.102	-0.0016
725.351	-0.0013
725.599	-0.0014
725.848	-0.0019
726.097	-0.0014
726.345	-0.0013
726.594	-0.0027
726.842	-0.0024
727.09	-0.0043
727.339	-0.0047
727.587	-0.0044
727.835	-0.0046
728.083	-0.0037
728.331	-0.0044
728.579	-0.0031
728.827	-0.0018
729.075	-0.0012
729.323	-0.0014
729.571	-0.0014
729.818	-0.0012
730.066	-0.0013
730.314	-0.0017
730.561	0.0005
730.809	0
731.056	-0.0003
731.303	0.0004
731.551	0.0002
731.798	-0.0002
732.045	-0.0004
732.292	0.0012
732.539	0.0008
732.786	0.0017
733.033	0.0009
733.28	0.0007
733.527	0.0004
733.774	-0.0001
734.021	-0.0021
734.267	-0.0024
734.514	-0.0031
734.76	-0.0038
735.007	-0.0033
735.253	-0.0043
735.5	-0.0036
735.746	-0.0036
735.992	-0.0029
736.238	-0.0021
736.485	-0.0016
736.731	-0.0015
736.977	-0.0022
737.223	-0.0022
737.469	-0.002
737.715	-0.0012
737.96	-0.0023
738.206	-0.0021
738.452	-0.0026
738.697	-0.0021
738.943	-0.0024
739.189	-0.0023
739.434	-0.0019
739.679	-0.003
739.925	-0.0029
740.17	-0.0037
740.415	-0.0038
740.66	-0.0043
740.906	-0.0036
741.151	-0.0032
741.396	-0.0045
741.641	-0.0046
741.886	-0.0041
742.13	-0.0024
742.375	-0.0019
742.62	-0.0027
742.865	-0.0029
743.109	-0.0017
743.354	-0.0008
743.598	0.0003
743.843	0.0004
744.087	0.0006
744.331	0.0011
744.576	0.0019
744.82	0.0029
745.064	0.0028
745.308	0.0027
745.552	0.0028
745.796	0.0007
746.04	0.0008
746.284	0.0006
746.528	0.0012
746.771	0.0023
747.015	0.002
747.259	0.0016
747.502	0.0006
747.746	0.0003
747.989	0.0009
748.233	-0.0006
748.476	0.0011
748.719	0.0015
748.963	0.0027
749.206	0.0027
749.449	0.0005
749.692	0.0012
749.935	0.0014
750.178	-0
750.421	-0.0004
750.664	-0.0005
750.906	0.0015
751.149	0.0008
751.392	0.0007
751.635	-0.0003
751.877	-0.0006
752.12	-0.001
752.362	-0.0008
752.604	-0.001
752.847	0.0006
753.089	0.0011
753.331	0.0021
753.573	0.0013
753.816	-0.0004
754.058	-0.0008
754.3	-0.0017
754.542	-0.0018
754.783	-0.0026
755.025	-0.0019
755.267	-0.0008
755.509	-0.0015
755.75	-0.0022
755.992	-0.0013
756.234	-0.0015
756.475	-0.0019
756.716	-0.0022
756.958	-0.0023
757.199	-0.0024
757.44	-0.0025
757.682	-0.0026
757.923	-0.0012
758.164	-0.0011
758.405	-0.001
758.646	0.0006
758.887	-0.0002
759.128	0.0003
759.369	-0.0003
759.609	0.0007
759.85	0.0003
760.091	0.0008
760.331	0.0008
760.572	-0.0009
760.812	-0.0012
761.053	-0.0014
761.293	-0.0012
761.533	-0.0018
761.774	-0
762.014	0.0002
762.254	-0.0004
762.494	-0.0015
762.734	-0.0012
762.974	-0.002
763.214	-0.0019
763.454	-0.002
763.694	-0.0022
763.933	-0.0025
764.173	-0.0047
764.413	-0.0052
764.652	-0.0049
764.892	-0.0042
765.131	-0.0044
765.371	-0.0038
765.61	-0.0046
765.849	-0.0041
766.089	-0.003
766.328	-0.0021
766.567	-0.0024
766.806	-0.0023
767.045	-0.0011
767.284	-0.0018
767.523	-0.002
767.762	-0.0031
768.001	-0.0023
768.239	-0.0019
768.478	-0.0012
768.717	-0.0016
768.955	-0.0011
769.194	-0.0022
769.432	-0.0001
769.671	-0.0004
769.909	0.0006
770.148	-0.0005
770.386	0.001
770.624	0.0017
770.862	0.0018
771.1	0.0027
771.338	0.0022
771.576	0.0009
771.814	0.0016
772.052	0.0019
772.29	0.0026
772.528	0.0036
772.765	0.0035
773.003	0.004
773.24	0.0042
773.478	0.0023
773.716	0.0032
773.953	0.0027
774.19	0.0033
774.428	0.0038
774.665	0.0043
774.902	0.0046
775.139	0.0043
775.376	0.0029
775.613	0.0031
775.85	0.0013
776.087	0.0006
776.324	0.0013
776.561	0.0003
776.798	0.0001
777.034	0.0004
777.271	0.001
777.508	0.0012
777.744	0.002
777.981	0.0022
778.217	0.0025
778.454	0.0006
778.69	0.0007
778.926	-0.0006
779.162	-0.0009
779.399	0.0002
779.635	-0.0012
779.871	-0.0009
780.107	-0.0006
780.343	-0.0015
780.579	-0.0009
780.814	-0.0003
781.05	-0.0004
781.286	-0.0008
781.522	-0.0004
781.757	0.0001
781.993	0.0003
782.228	-0.0001
782.464	0.0009
782.699	-0.001
782.934	-0.0016
783.17	-0.0011
783.405	-0.0009
783.64	-0.0016
783.875	-0.0025
784.11	-0.0021
784.345	-0.0019
784.58	-0.0003
784.815	0.0001
785.05	-0.0011
785.285	-0.0022
785.52	-0.0026
785.754	-0.0038
785.989	-0.004
786.223	-0.0054
786.458	-0.0052
786.692	-0.004
786.927	-0.0036
787.161	-0.0027
787.396	-0.0029
787.63	-0.0028
787.864	-0.0042
788.098	-0.0043
788.332	-0.0037
788.566	-0.0031
788.8	-0.0036
789.034	-0.0027
789.268	-0.0028
789.502	-0.0026
789.736	-0.0024
789.969	-0.0019
790.203	-0.0022
790.437	-0.0029
790.67	-0.0033
790.904	-0.0046
791.137	-0.0043
791.37	-0.005
791.604	-0.0063
791.837	-0.0069
792.07	-0.0064
792.303	-0.0062
792.537	-0.0066
792.77	-0.0066
793.003	-0.0063
793.236	-0.0056
793.469	-0.006
793.701	-0.0049
793.934	-0.0041
794.167	-0.0028
794.4	-0.003
794.632	-0.0022
794.865	-0.0016
795.097	-0.0015
795.33	-0.0026
795.562	-0.002
795.795	-0.0013
796.027	-0.0018
796.259	-0.0017
796.491	-0.0021
796.724	-0.0022
796.956	-0.0006
797.188	-0.0012
797.42	-0.0007
797.652	-0.0005
797.883	-0.0002
798.115	0.001
798.347	0.0009
798.579	0.0023
798.81	0.0031
799.042	0.0034
799.274	0.0026
799.505	0.0015
799.737	0.0008
799.968	-0.0008
800.199	0.0004
800.431	-0.0006
800.662	-0.0003
800.893	0.0004
801.124	0.0004
801.355	-0.0005
801.586	-0.0004
801.817	-0.0008
802.048	-0.0031
802.279	-0.0025
802.51	-0.0018
802.741	-0.0008
802.971	0.0002
803.202	-0.0003
803.433	0.0009
803.663	-0.0003
803.894	-0.0002
804.124	-0.0006
804.354	0.0007
804.585	0.0004
804.815	0.0015
805.045	-0.0001
805.275	0.001
805.506	-0.0347
805.736	-0.0404
805.966	0.0094
806.196	-0.0704
