Data from 03 0.5 mM K2Cr2O7 0.3 mM BQDS 1 M H2SO4 5 min_Absorbance_0044.txt Node
Date: Mon Dec 13 21:19:45 EST 2021
User: kwabilab-user
Spectrometer: HDX00518
Trigger mode: 0
Integration Time (sec): 5.000000E-2
Scans to average: 50
Nonlinearity correction enabled: false
Boxcar width: 0
Storing dark spectrum: false
XAxis mode: Wavelengths
Number of Pixels in Spectrum: 2068
>>>>>Begin Spectral Data<<<<<
195.27	0.0348
195.642	-0.0311
196.014	0.0777
196.386	0.2725
196.758	-0.0145
197.129	-0.0097
197.501	0.0008
197.872	0.0078
198.244	0.0237
198.615	0.0577
198.986	0.05
199.357	0.063
199.728	0.0384
200.099	0.0581
200.47	0.0122
200.841	0.0578
201.212	0.0428
201.582	0.044
201.953	0.0561
202.323	0.0596
202.694	0.0379
203.064	0.0478
203.434	0.0558
203.804	0.0629
204.174	0.0485
204.544	0.0556
204.914	0.0325
205.284	0.0603
205.653	0.0383
206.023	0.033
206.393	0.0284
206.762	0.0663
207.131	0.0513
207.501	0.0478
207.87	0.059
208.239	0.059
208.608	0.0543
208.977	0.0357
209.346	0.0474
209.715	0.0611
210.083	0.0291
210.452	0.0542
210.82	0.0374
211.189	0.0333
211.557	0.0509
211.925	0.0254
212.294	0.0482
212.662	0.0384
213.03	0.0562
213.398	0.0786
213.766	0.0777
214.133	0.0651
214.501	0.0669
214.869	0.0565
215.236	0.0635
215.604	0.0558
215.971	0.0675
216.338	0.0846
216.705	0.0639
217.072	0.0945
217.439	0.0715
217.806	0.0811
218.173	0.0814
218.54	0.0897
218.907	0.0852
219.273	0.0953
219.64	0.1084
220.006	0.1093
220.373	0.0999
220.739	0.1287
221.105	0.1467
221.471	0.1567
221.837	0.1843
222.203	0.2023
222.569	0.2017
222.935	0.2514
223.3	0.2336
223.666	0.2618
224.031	0.2949
224.397	0.3103
224.762	0.3326
225.127	0.343
225.493	0.3999
225.858	0.3977
226.223	0.4319
226.588	0.4708
226.952	0.4763
227.317	0.5022
227.682	0.5145
228.046	0.4994
228.411	0.5593
228.775	0.5674
229.14	0.5581
229.504	0.5917
229.868	0.6031
230.232	0.6098
230.596	0.6337
230.96	0.648
231.324	0.6457
231.688	0.6591
232.052	0.6759
232.415	0.676
232.779	0.6878
233.142	0.702
233.505	0.7063
233.869	0.717
234.232	0.7031
234.595	0.7032
234.958	0.7097
235.321	0.7118
235.684	0.7225
236.047	0.7212
236.409	0.7097
236.772	0.7303
237.134	0.7104
237.497	0.7273
237.859	0.7464
238.222	0.7228
238.584	0.7335
238.946	0.7228
239.308	0.7147
239.67	0.7099
240.032	0.7207
240.393	0.7161
240.755	0.7063
241.117	0.7241
241.478	0.7176
241.84	0.7133
242.201	0.7109
242.562	0.7021
242.924	0.7077
243.285	0.697
243.646	0.7061
244.007	0.7056
244.368	0.6955
244.728	0.6983
245.089	0.7068
245.45	0.7049
245.81	0.7038
246.171	0.6899
246.531	0.7031
246.891	0.691
247.252	0.6904
247.612	0.6931
247.972	0.6939
248.332	0.6979
248.692	0.6976
249.051	0.6997
249.411	0.7016
249.771	0.6985
250.13	0.6946
250.49	0.6944
250.849	0.6947
251.208	0.698
251.568	0.6908
251.927	0.6971
252.286	0.6972
252.645	0.6942
253.004	0.6968
253.363	0.6896
253.721	0.6972
254.08	0.6901
254.439	0.6939
254.797	0.6826
255.155	0.6877
255.514	0.6959
255.872	0.6967
256.23	0.686
256.588	0.6907
256.946	0.6933
257.304	0.6941
257.662	0.6899
258.02	0.6918
258.377	0.6875
258.735	0.6897
259.093	0.6819
259.45	0.6829
259.807	0.683
260.165	0.6784
260.522	0.6815
260.879	0.678
261.236	0.6735
261.593	0.6764
261.95	0.6688
262.306	0.6724
262.663	0.6599
263.02	0.6565
263.376	0.6665
263.733	0.66
264.089	0.6546
264.445	0.6578
264.802	0.6533
265.158	0.6567
265.514	0.6504
265.87	0.6488
266.226	0.6482
266.581	0.6549
266.937	0.6402
267.293	0.646
267.648	0.631
268.004	0.6334
268.359	0.6365
268.714	0.6311
269.07	0.6268
269.425	0.6222
269.78	0.6163
270.135	0.6182
270.49	0.6123
270.844	0.6136
271.199	0.6089
271.554	0.6018
271.908	0.595
272.263	0.6039
272.617	0.5922
272.972	0.5897
273.326	0.5856
273.68	0.5813
274.034	0.5798
274.388	0.5751
274.742	0.5773
275.096	0.5734
275.45	0.5718
275.803	0.5639
276.157	0.557
276.51	0.5499
276.864	0.5469
277.217	0.5463
277.571	0.5422
277.924	0.5395
278.277	0.5329
278.63	0.5317
278.983	0.5234
279.336	0.5162
279.688	0.5154
280.041	0.5071
280.394	0.5037
280.746	0.5004
281.099	0.4952
281.451	0.4907
281.803	0.4844
282.156	0.4793
282.508	0.4744
282.86	0.471
283.212	0.466
283.564	0.461
283.916	0.4601
284.267	0.4514
284.619	0.4461
284.971	0.4407
285.322	0.4382
285.673	0.4324
286.025	0.4281
286.376	0.4221
286.727	0.422
287.078	0.4136
287.429	0.4072
287.78	0.4059
288.131	0.3994
288.482	0.3932
288.833	0.3884
289.183	0.3843
289.534	0.3789
289.884	0.3778
290.235	0.3719
290.585	0.3659
290.935	0.3623
291.285	0.3559
291.635	0.3529
291.985	0.3466
292.335	0.3442
292.685	0.3388
293.035	0.3357
293.384	0.3307
293.734	0.3276
294.083	0.3218
294.433	0.3173
294.782	0.3109
295.131	0.3068
295.48	0.3028
295.829	0.3006
296.179	0.295
296.527	0.2917
296.876	0.2867
297.225	0.283
297.574	0.2781
297.922	0.2731
298.271	0.2705
298.619	0.2659
298.968	0.2614
299.316	0.2586
299.664	0.2541
300.012	0.2518
300.36	0.247
300.708	0.2438
301.056	0.2411
301.404	0.2376
301.752	0.2347
302.099	0.2311
302.447	0.228
302.794	0.2252
303.142	0.2239
303.489	0.2185
303.836	0.2165
304.183	0.2144
304.531	0.2127
304.878	0.2098
305.224	0.2085
305.571	0.2044
305.918	0.2029
306.265	0.2019
306.611	0.199
306.958	0.1977
307.304	0.1953
307.651	0.1942
307.997	0.192
308.343	0.1919
308.689	0.1897
309.035	0.188
309.381	0.1874
309.727	0.1859
310.073	0.1853
310.419	0.185
310.764	0.1833
311.11	0.182
311.455	0.1822
311.801	0.1814
312.146	0.1804
312.491	0.1804
312.837	0.1788
313.182	0.1798
313.527	0.1799
313.872	0.1786
314.216	0.1791
314.561	0.1792
314.906	0.1786
315.251	0.1787
315.595	0.1792
315.94	0.1797
316.284	0.1801
316.628	0.1802
316.972	0.1815
317.317	0.1814
317.661	0.1817
318.005	0.1822
318.348	0.1843
318.692	0.1846
319.036	0.1846
319.38	0.1848
319.723	0.1867
320.067	0.1879
320.41	0.189
320.754	0.1901
321.097	0.191
321.44	0.192
321.783	0.1933
322.126	0.1952
322.469	0.1956
322.812	0.1972
323.155	0.1982
323.498	0.1998
323.84	0.2023
324.183	0.2034
324.525	0.2046
324.868	0.2068
325.21	0.2067
325.552	0.2103
325.894	0.2106
326.236	0.2124
326.578	0.2139
326.92	0.2155
327.262	0.2175
327.604	0.2191
327.946	0.2204
328.287	0.2227
328.629	0.2252
328.97	0.2268
329.312	0.2276
329.653	0.2293
329.994	0.2318
330.335	0.2332
330.676	0.2357
331.017	0.237
331.358	0.2401
331.699	0.2417
332.04	0.2431
332.38	0.2448
332.721	0.2462
333.061	0.2494
333.402	0.2501
333.742	0.2533
334.083	0.2548
334.423	0.255
334.763	0.2573
335.103	0.2596
335.443	0.2609
335.783	0.2615
336.123	0.2632
336.462	0.265
336.802	0.2669
337.141	0.2685
337.481	0.2688
337.82	0.2716
338.16	0.2725
338.499	0.2748
338.838	0.276
339.177	0.2772
339.516	0.2786
339.855	0.2803
340.194	0.2812
340.533	0.2826
340.872	0.2843
341.21	0.2853
341.549	0.2859
341.887	0.2871
342.226	0.2887
342.564	0.2891
342.902	0.2903
343.24	0.2903
343.578	0.2911
343.916	0.2909
344.254	0.2918
344.592	0.2925
344.93	0.2928
345.268	0.2922
345.605	0.2929
345.943	0.2939
346.28	0.2939
346.618	0.2944
346.955	0.2934
347.292	0.294
347.629	0.2952
347.966	0.2945
348.303	0.296
348.64	0.2955
348.977	0.2951
349.314	0.2961
349.65	0.2956
349.987	0.296
350.324	0.296
350.66	0.2955
350.996	0.2943
351.333	0.2943
351.669	0.2931
352.005	0.2931
352.341	0.292
352.677	0.2916
353.013	0.2905
353.349	0.2887
353.685	0.2869
354.02	0.286
354.356	0.2845
354.691	0.2842
355.027	0.2825
355.362	0.2821
355.697	0.2811
356.033	0.2802
356.368	0.2788
356.703	0.2775
357.038	0.2758
357.373	0.2747
357.707	0.2743
358.042	0.2721
358.377	0.2729
358.711	0.2704
359.046	0.2701
359.38	0.2687
359.715	0.2671
360.049	0.2668
360.383	0.2647
360.717	0.2634
361.051	0.2615
361.385	0.2605
361.719	0.2573
362.053	0.2554
362.387	0.253
362.72	0.2524
363.054	0.2494
363.387	0.2475
363.721	0.2455
364.054	0.2426
364.387	0.241
364.721	0.2397
365.054	0.2377
365.387	0.2354
365.72	0.2329
366.053	0.2312
366.385	0.2294
366.718	0.2279
367.051	0.226
367.383	0.2252
367.716	0.2233
368.048	0.2212
368.381	0.2186
368.713	0.2181
369.045	0.2171
369.377	0.2149
369.709	0.2132
370.041	0.2118
370.373	0.2101
370.705	0.2082
371.037	0.2065
371.368	0.2039
371.7	0.204
372.031	0.2007
372.363	0.1985
372.694	0.1956
373.025	0.1926
373.356	0.1911
373.688	0.189
374.019	0.1861
374.35	0.1844
374.68	0.1823
375.011	0.1794
375.342	0.1767
375.673	0.1757
376.003	0.1728
376.334	0.1709
376.664	0.169
376.995	0.1667
377.325	0.1641
377.655	0.1635
377.985	0.1614
378.315	0.1599
378.645	0.1579
378.975	0.156
379.305	0.155
379.635	0.1538
379.964	0.1527
380.294	0.1503
380.623	0.1494
380.953	0.1471
381.282	0.1463
381.611	0.1431
381.941	0.1418
382.27	0.1412
382.599	0.1396
382.928	0.1368
383.257	0.1354
383.585	0.1331
383.914	0.1326
384.243	0.1303
384.571	0.128
384.9	0.1254
385.228	0.1244
385.557	0.1227
385.885	0.1196
386.213	0.1185
386.541	0.1169
386.869	0.1152
387.197	0.1123
387.525	0.1112
387.853	0.1088
388.181	0.1076
388.508	0.1059
388.836	0.104
389.164	0.102
389.491	0.1015
389.818	0.0999
390.146	0.0978
390.473	0.0968
390.8	0.0952
391.127	0.0936
391.454	0.0926
391.781	0.0913
392.108	0.0905
392.435	0.0888
392.761	0.0883
393.088	0.087
393.415	0.0862
393.741	0.085
394.067	0.0837
394.394	0.0833
394.72	0.0812
395.046	0.0809
395.372	0.0802
395.698	0.0786
396.024	0.077
396.35	0.0767
396.676	0.0754
397.001	0.0744
397.327	0.0736
397.653	0.0721
397.978	0.0703
398.303	0.0692
398.629	0.0676
398.954	0.0675
399.279	0.067
399.604	0.0663
399.929	0.065
400.254	0.0648
400.579	0.0637
400.904	0.0629
401.229	0.0617
401.553	0.0614
401.878	0.0605
402.202	0.0594
402.527	0.0588
402.851	0.058
403.175	0.058
403.5	0.0574
403.824	0.0566
404.148	0.0565
404.472	0.0551
404.796	0.0547
405.119	0.0549
405.443	0.0543
405.767	0.0536
406.09	0.0536
406.414	0.053
406.737	0.053
407.061	0.0526
407.384	0.0523
407.707	0.0519
408.03	0.0514
408.353	0.0524
408.676	0.0511
408.999	0.0511
409.322	0.0509
409.645	0.0501
409.968	0.0501
410.29	0.05
410.613	0.0505
410.935	0.0502
411.258	0.0499
411.58	0.0494
411.902	0.0496
412.224	0.0488
412.546	0.0496
412.868	0.0491
413.19	0.0491
413.512	0.0488
413.834	0.0484
414.156	0.0482
414.477	0.0485
414.799	0.0485
415.121	0.0485
415.442	0.0483
415.763	0.0484
416.085	0.0485
416.406	0.0486
416.727	0.0482
417.048	0.0475
417.369	0.0479
417.69	0.048
418.011	0.0475
418.331	0.0485
418.652	0.0483
418.973	0.0478
419.293	0.0481
419.614	0.0482
419.934	0.0489
420.254	0.0479
420.574	0.0485
420.895	0.0486
421.215	0.0478
421.535	0.0484
421.855	0.0477
422.174	0.0479
422.494	0.0473
422.814	0.0473
423.134	0.048
423.453	0.0474
423.773	0.0479
424.092	0.0483
424.411	0.0477
424.731	0.0483
425.05	0.0477
425.369	0.0473
425.688	0.048
426.007	0.0473
426.326	0.0477
426.644	0.0485
426.963	0.048
427.282	0.0482
427.6	0.0476
427.919	0.0477
428.237	0.0487
428.556	0.0485
428.874	0.0482
429.192	0.0487
429.51	0.0488
429.828	0.0483
430.146	0.0483
430.464	0.0477
430.782	0.0481
431.1	0.0486
431.418	0.0481
431.735	0.0478
432.053	0.0485
432.37	0.0479
432.688	0.0483
433.005	0.0481
433.322	0.0484
433.639	0.0485
433.957	0.0485
434.274	0.0478
434.591	0.0483
434.907	0.0476
435.224	0.0477
435.541	0.048
435.858	0.0484
436.174	0.0481
436.491	0.0479
436.807	0.0469
437.124	0.0477
437.44	0.0479
437.756	0.0484
438.072	0.0481
438.388	0.0482
438.704	0.0476
439.02	0.0483
439.336	0.0473
439.652	0.0468
439.968	0.0468
440.283	0.0468
440.599	0.0468
440.914	0.0474
441.23	0.0479
441.545	0.0474
441.86	0.0468
442.175	0.0468
442.491	0.047
442.806	0.0474
443.121	0.0469
443.435	0.0463
443.75	0.0465
444.065	0.0466
444.38	0.0465
444.694	0.0469
445.009	0.0464
445.323	0.0462
445.638	0.0461
445.952	0.0466
446.266	0.0464
446.58	0.0469
446.894	0.046
447.208	0.0463
447.522	0.0459
447.836	0.0461
448.15	0.0449
448.464	0.0457
448.777	0.0456
449.091	0.0447
449.404	0.045
449.718	0.0444
450.031	0.0446
450.345	0.0451
450.658	0.0445
450.971	0.0444
451.284	0.0442
451.597	0.0438
451.91	0.044
452.223	0.0444
452.535	0.0435
452.848	0.044
453.161	0.043
453.473	0.0432
453.786	0.043
454.098	0.0423
454.411	0.0436
454.723	0.0427
455.035	0.0426
455.347	0.0413
455.659	0.0424
455.971	0.0428
456.283	0.0419
456.595	0.042
456.907	0.0418
457.218	0.0418
457.53	0.0402
457.841	0.0409
458.153	0.0409
458.464	0.0404
458.776	0.041
459.087	0.04
459.398	0.0405
459.709	0.0407
460.02	0.0398
460.331	0.0395
460.642	0.0392
460.953	0.0394
461.263	0.039
461.574	0.0383
461.885	0.038
462.195	0.0382
462.506	0.0382
462.816	0.0381
463.126	0.0372
463.437	0.0378
463.747	0.0364
464.057	0.0367
464.367	0.0365
464.677	0.0362
464.987	0.0358
465.296	0.0365
465.606	0.0351
465.916	0.0356
466.225	0.0355
466.535	0.0356
466.844	0.0356
467.154	0.0348
467.463	0.0344
467.772	0.0347
468.081	0.0338
468.39	0.0336
468.699	0.0334
469.008	0.0324
469.317	0.0328
469.626	0.0315
469.935	0.0311
470.243	0.032
470.552	0.0327
470.86	0.0322
471.169	0.0316
471.477	0.0317
471.785	0.0311
472.093	0.0312
472.402	0.0302
472.71	0.0307
473.018	0.0303
473.326	0.0295
473.633	0.0304
473.941	0.0294
474.249	0.0287
474.556	0.0305
474.864	0.0297
475.171	0.0286
475.479	0.028
475.786	0.0277
476.094	0.028
476.401	0.0281
476.708	0.0279
477.015	0.0277
477.322	0.0268
477.629	0.0262
477.936	0.0264
478.242	0.0257
478.549	0.0266
478.856	0.0265
479.162	0.0254
479.469	0.0258
479.775	0.0263
480.081	0.0251
480.388	0.0248
480.694	0.0256
481	0.0245
481.306	0.0237
481.612	0.0239
481.918	0.0238
482.224	0.0241
482.53	0.0232
482.835	0.0237
483.141	0.0233
483.446	0.0232
483.752	0.0219
484.057	0.0221
484.363	0.0225
484.668	0.0215
484.973	0.0205
485.278	0.0205
485.583	0.0209
485.888	0.0206
486.193	0.02
486.498	0.0191
486.803	0.0195
487.107	0.0197
487.412	0.0188
487.717	0.0189
488.021	0.0183
488.325	0.0198
488.63	0.0196
488.934	0.019
489.238	0.0188
489.542	0.0173
489.846	0.0181
490.15	0.0178
490.454	0.0175
490.758	0.0165
491.062	0.0166
491.366	0.0166
491.669	0.0171
491.973	0.0174
492.276	0.0164
492.58	0.0155
492.883	0.0154
493.186	0.0155
493.489	0.0155
493.792	0.0149
494.096	0.0148
494.399	0.0146
494.701	0.0147
495.004	0.0142
495.307	0.0142
495.61	0.0137
495.912	0.0139
496.215	0.0132
496.517	0.0131
496.82	0.0135
497.122	0.0124
497.424	0.0133
497.727	0.0123
498.029	0.0118
498.331	0.012
498.633	0.0124
498.935	0.0125
499.237	0.0118
499.538	0.0112
499.84	0.0112
500.142	0.011
500.443	0.011
500.745	0.0099
501.046	0.0096
501.348	0.0096
501.649	0.0085
501.95	0.0093
502.251	0.0096
502.552	0.009
502.853	0.0088
503.154	0.0091
503.455	0.009
503.756	0.0089
504.057	0.009
504.357	0.0079
504.658	0.0079
504.958	0.0091
505.259	0.0084
505.559	0.0088
505.859	0.0071
506.16	0.0079
506.46	0.007
506.76	0.0084
507.06	0.0077
507.36	0.0077
507.66	0.0074
507.96	0.0083
508.259	0.0074
508.559	0.0069
508.859	0.0067
509.158	0.0067
509.457	0.0061
509.757	0.0063
510.056	0.0066
510.355	0.0071
510.655	0.0052
510.954	0.0061
511.253	0.0059
511.552	0.0061
511.851	0.0063
512.149	0.0047
512.448	0.0055
512.747	0.0058
513.045	0.0052
513.344	0.0043
513.642	0.0047
513.941	0.0053
514.239	0.0041
514.537	0.0039
514.836	0.0043
515.134	0.003
515.432	0.0052
515.73	0.0034
516.028	0.004
516.326	0.0047
516.623	0.0042
516.921	0.0033
517.219	0.0034
517.516	0.0028
517.814	0.0033
518.111	0.0034
518.409	0.0023
518.706	0.0029
519.003	0.003
519.3	0.0024
519.597	0.0028
519.894	0.0034
520.191	0.0025
520.488	0.0027
520.785	0.0024
521.082	0.0028
521.378	0.0019
521.675	0.0023
521.971	0.0015
522.268	0.0016
522.564	0.0012
522.861	0.003
523.157	0.0024
523.453	0.0029
523.749	0.0026
524.045	0.0024
524.341	0.0022
524.637	0.0012
524.933	0.0013
525.229	0.0016
525.524	0.0006
525.82	0.0009
526.115	0.0005
526.411	0.0007
526.706	0.0015
527.002	0.0017
527.297	0.0008
527.592	0.0008
527.887	0.002
528.182	0.0011
528.477	0.0021
528.772	0.0009
529.067	0.0011
529.362	0.0007
529.657	0.0011
529.951	0.0009
530.246	0.0004
530.54	0.0011
530.835	0.0008
531.129	-0.0001
531.423	0.0011
531.718	0.0003
532.012	0.001
532.306	0.0005
532.6	-0.0006
532.894	0.0002
533.188	0.001
533.482	0.0002
533.775	0.0008
534.069	-0.0005
534.363	-0.0009
534.656	-0.0018
534.95	0.0001
535.243	-0.0004
535.536	0.0011
535.83	-0.0004
536.123	-0.0001
536.416	-0.0004
536.709	0.0001
537.002	-0.0003
537.295	-0.0002
537.588	-0.0005
537.881	-0.0002
538.173	-0.0001
538.466	-0.0002
538.759	-0.0002
539.051	-0.0005
539.344	-0.001
539.636	-0.0006
539.928	-0.0002
540.22	-0.0002
540.513	-0
540.805	0.0006
541.097	-0.0019
541.389	-0.0009
541.681	-0.0006
541.972	0.0009
542.264	-0.0001
542.556	-0.0004
542.847	0.0001
543.139	-0.0009
543.431	-0.0011
543.722	-0.0004
544.013	0.0007
544.305	-0.0007
544.596	-0.0014
544.887	0
545.178	0.0005
545.469	-0.0022
545.76	-0.001
546.051	0.0001
546.342	-0.0002
546.632	-0.0006
546.923	-0.001
547.214	-0.0004
547.504	-0.0006
547.795	-0.0017
548.085	-0.0014
548.375	-0.0007
548.666	-0.0018
548.956	-0.0015
549.246	-0.0016
549.536	0.0005
549.826	-0.0009
550.116	-0.0011
550.406	-0.0017
550.695	-0.0028
550.985	-0.0013
551.275	-0.0013
551.564	-0.0016
551.854	-0.0006
552.143	-0.001
552.433	-0.0018
552.722	-0.0019
553.011	-0.0004
553.3	-0.0007
553.589	-0.0003
553.879	-0.0014
554.167	-0.0004
554.456	-0.0003
554.745	0.0003
555.034	-0.0012
555.323	0.0002
555.611	-0
555.9	0
556.188	-0.001
556.477	-0.0013
556.765	-0.002
557.053	-0.0018
557.342	-0.0014
557.63	-0.0009
557.918	0.0001
558.206	0.0001
558.494	-0.0012
558.782	-0.0009
559.069	0.0001
559.357	0
559.645	0
559.932	-0.0005
560.22	-0.0009
560.507	-0.0009
560.795	-0.0004
561.082	-0.0017
561.37	0.0001
561.657	-0.0005
561.944	-0.0014
562.231	-0.0005
562.518	0.0002
562.805	-0
563.092	0.0003
563.379	-0.0001
563.665	-0.0004
563.952	-0.0009
564.239	0.0001
564.525	0.0006
564.811	0.0005
565.098	0.0001
565.384	-0
565.67	0
565.957	-0.0001
566.243	0.0012
566.529	0.0002
566.815	0.0008
567.101	0.0005
567.387	-0.0001
567.672	0.0005
567.958	0.0014
568.244	0.0009
568.529	0.0014
568.815	-0.0001
569.1	-0.0001
569.386	-0.0012
569.671	0.0007
569.956	-0.0001
570.242	0
570.527	-0.001
570.812	0.0005
571.097	0.0005
571.382	-0.0002
571.666	0.0004
571.951	0.0003
572.236	-0.0001
572.521	-0
572.805	-0.0006
573.09	-0.0005
573.374	-0.0011
573.659	-0.0005
573.943	-0.0004
574.227	-0.0005
574.511	0
574.795	-0.0002
575.079	0.0003
575.363	-0.0006
575.647	-0.0002
575.931	0.0001
576.215	-0.0008
576.499	-0.0005
576.782	-0.0014
577.066	-0.0006
577.349	-0
577.633	-0.0003
577.916	-0.0005
578.2	-0.0001
578.483	-0.0007
578.766	-0.0007
579.049	-0.0004
579.332	0.0006
579.615	0.0003
579.898	-0.0003
580.181	-0.0002
580.464	0.0007
580.746	0.0002
581.029	-0.0004
581.312	0.0001
581.594	-0.0008
581.877	-0.0007
582.159	-0.0013
582.441	-0.0012
582.724	-0.0005
583.006	0.0002
583.288	0.0007
583.57	0.0006
583.852	0.0008
584.134	0.0005
584.416	0.0009
584.697	0.0008
584.979	-0.0003
585.261	-0.0009
585.542	-0.0009
585.824	-0.0014
586.105	-0.0011
586.387	-0.0007
586.668	-0.0002
586.949	-0.0002
587.231	-0
587.512	-0.0004
587.793	0.0001
588.074	-0.0004
588.355	-0.0003
588.636	-0.0002
588.916	-0.0007
589.197	-0.0007
589.478	-0.0007
589.758	0.0009
590.039	0.0002
590.319	0.0007
590.6	0.0006
590.88	-0
591.16	-0
591.441	0.001
591.721	-0
592.001	-0.0005
592.281	-0.0004
592.561	0.0001
592.841	0.0001
593.12	-0.0017
593.4	-0.0011
593.68	-0.002
593.959	-0.0012
594.239	-0.0013
594.518	-0.0012
594.798	0.0005
595.077	-0.0012
595.356	-0.0004
595.636	-0.0011
595.915	-0.0009
596.194	0
596.473	-0
596.752	0.0003
597.031	0.0006
597.31	0.0005
597.588	-0.0003
597.867	-0.0004
598.146	-0.0014
598.424	-0.0003
598.703	-0.0002
598.981	-0.0011
599.259	-0.0014
599.538	-0.0008
599.816	0.0002
600.094	-0.0004
600.372	-0.0015
600.65	-0.0021
600.928	-0.0006
601.206	-0.0001
601.484	-0.0008
601.762	-0.0004
602.04	-0.0001
602.317	-0.0007
602.595	-0.0011
602.872	0.0003
603.15	0.0008
603.427	-0.001
603.704	-0.0013
603.982	-0.0005
604.259	-0.0003
604.536	-0.0001
604.813	-0.0009
605.09	-0.0013
605.367	-0.0007
605.644	-0.0013
605.921	-0.0009
606.197	-0.0006
606.474	-0.0004
606.751	-0.0004
607.027	-0
607.304	-0.0004
607.58	-0.0006
607.856	-0.001
608.133	-0.0012
608.409	-0.0011
608.685	-0.0005
608.961	-0.0006
609.237	-0.0006
609.513	-0.0006
609.789	-0.0004
610.065	-0.0009
610.341	-0.0013
610.616	-0.0009
610.892	-0.0006
611.167	-0.0001
611.443	-0.001
611.718	-0.001
611.994	-0.0015
612.269	-0.001
612.544	-0.0004
612.819	-0.0011
613.095	-0.001
613.37	-0.0003
613.645	-0.0008
613.919	-0.0008
614.194	0.0003
614.469	0.0005
614.744	-0.0002
615.019	-0.0013
615.293	-0.0013
615.568	-0.0011
615.842	-0.0009
616.116	0.0001
616.391	0.0006
616.665	0.0011
616.939	0.0004
617.213	0.0005
617.488	0.0003
617.762	-0.0007
618.035	-0.0007
618.309	-0.0014
618.583	-0.0003
618.857	0.0003
619.131	0.0003
619.404	0.0002
619.678	0.0003
619.951	-0.0008
620.225	-0.0007
620.498	-0.0015
620.771	-0.0008
621.045	-0.0017
621.318	-0.0018
621.591	-0.0018
621.864	-0.0021
622.137	-0.0021
622.41	-0.0017
622.683	-0.0017
622.956	-0.0011
623.228	-0.0008
623.501	-0.0004
623.774	-0.0013
624.046	-0.0005
624.319	-0.0012
624.591	-0.0022
624.863	-0.0017
625.136	-0.0003
625.408	-0.0001
625.68	-0.0003
625.952	0.0002
626.224	-0.0008
626.496	-0.0004
626.768	-0.0012
627.04	-0.001
627.311	-0.0008
627.583	-0.0007
627.855	0.0003
628.126	-0.0001
628.398	0.0008
628.669	0.002
628.941	0.0017
629.212	0.0009
629.483	0.0009
629.755	0.0005
630.026	0.0002
630.297	0.0005
630.568	0.0002
630.839	0.0001
631.11	-0.0002
631.38	0.0004
631.651	-0
631.922	0.0005
632.192	-0.001
632.463	-0.0008
632.733	-0.0006
633.004	-0.0012
633.274	0.0002
633.545	-0.0004
633.815	-0.0002
634.085	-0.0013
634.355	-0.0027
634.625	-0.0017
634.895	-0.0015
635.165	-0.0006
635.435	-0.0026
635.705	-0.0019
635.974	-0.0021
636.244	-0.0013
636.514	-0.0012
636.783	-0.0017
637.053	-0.0014
637.322	-0.0008
637.591	-0.0002
637.861	-0.0014
638.13	-0.0014
638.399	-0.0021
638.668	-0.0019
638.937	-0.0024
639.206	-0.003
639.475	-0.0033
639.744	-0.0035
640.013	-0.0025
640.281	-0.0031
640.55	-0.0022
640.819	-0.0025
641.087	-0.0012
641.356	-0.0025
641.624	-0.0008
641.892	-0.0002
642.161	-0.0001
642.429	-0.0016
642.697	-0.0023
642.965	-0.0011
643.233	-0.0017
643.501	-0.0016
643.769	-0.0005
644.037	-0.0014
644.305	-0.0014
644.572	-0.0007
644.84	-0.0018
645.108	-0.0026
645.375	-0.0027
645.643	-0.002
645.91	0.0002
646.177	0.0002
646.445	0.0006
646.712	0.0015
646.979	0.003
647.246	0.0025
647.513	0.0033
647.78	0.0013
648.047	0.0001
648.314	-0.002
648.58	-0.0019
648.847	-0.0007
649.114	-0.0001
649.38	-0.0005
649.647	-0.0011
649.913	-0.0011
650.18	-0.0015
650.446	-0.0011
650.712	-0.0019
650.978	-0.0013
651.245	-0.0016
651.511	-0.0016
651.777	-0.0016
652.043	-0.0014
652.309	-0
652.574	0.0005
652.84	0.0011
653.106	0.0008
653.371	0.0005
653.637	0.0012
653.903	0.0006
654.168	0.0014
654.433	0.0016
654.699	0.0021
654.964	0.0031
655.229	0.0012
655.494	0.0012
655.759	-0.0006
656.024	-0
656.289	-0
656.554	-0.0018
656.819	-0.0017
657.084	-0.0007
657.349	-0.0001
657.613	0.0004
657.878	-0.0002
658.142	-0.0008
658.407	0.0004
658.671	0.0003
658.936	0.0002
659.2	0.001
659.464	0.0005
659.728	0.0003
659.992	-0.0006
660.256	-0.0008
660.52	-0.0003
660.784	0
661.048	0.0003
661.312	0.0002
661.575	0.0007
661.839	0.0008
662.103	-0.0009
662.366	-0.0011
662.63	-0.0009
662.893	-0.0011
663.156	-0.0013
663.42	-0.0013
663.683	-0.0022
663.946	-0.0034
664.209	-0.0019
664.472	-0.0032
664.735	-0.001
664.998	-0.0013
665.261	-0.0012
665.524	-0.0012
665.786	-0.0008
666.049	-0.0009
666.312	-0.0001
666.574	-0.0017
666.837	-0.0009
667.099	-0.0005
667.361	-0.0012
667.624	-0.0024
667.886	-0.0024
668.148	-0.0015
668.41	-0.0013
668.672	-0.0017
668.934	-0.0004
669.196	-0.0001
669.458	0.0014
669.72	0.0015
669.982	0.0011
670.243	0.0012
670.505	0.0003
670.766	-0.0001
671.028	-0.0003
671.289	-0.0016
671.551	-0.0013
671.812	-0.0023
672.073	-0.001
672.334	-0.001
672.596	-0.0016
672.857	-0.0023
673.118	-0.0014
673.379	-0.0034
673.639	-0.0029
673.9	-0.0024
674.161	-0.003
674.422	-0.0037
674.682	-0.0029
674.943	-0.0025
675.203	-0.0029
675.464	-0.0025
675.724	-0.0043
675.985	-0.0039
676.245	-0.0038
676.505	-0.0033
676.765	-0.0041
677.025	-0.0031
677.285	-0.0031
677.545	-0.0019
677.805	-0.0006
678.065	-0.0019
678.325	-0.0016
678.585	-0.0025
678.844	-0.0031
679.104	-0.0035
679.363	-0.0047
679.623	-0.0032
679.882	-0.0025
680.142	-0.0021
680.401	-0.0026
680.66	-0.0018
680.919	-0.0007
681.178	-0.0007
681.437	-0.0009
681.696	-0.0023
681.955	-0.0015
682.214	-0.0007
682.473	-0.0023
682.732	-0.003
682.99	-0.0017
683.249	-0.0016
683.508	-0.0016
683.766	-0.0021
684.024	-0.0017
684.283	-0.001
684.541	-0.0009
684.799	-0.0007
685.058	-0.0003
685.316	-0.001
685.574	-0.0016
685.832	-0.002
686.09	-0.0025
686.348	-0.0032
686.606	-0.0029
686.863	-0.0036
687.121	-0.0028
687.379	-0.0014
687.636	-0.0025
687.894	-0.0019
688.151	-0.0017
688.409	-0.0006
688.666	-0.0024
688.923	-0.004
689.181	-0.0034
689.438	-0.0041
689.695	-0.0026
689.952	-0.0051
690.209	-0.0042
690.466	-0.0038
690.723	-0.0037
690.979	-0.0033
691.236	-0.0029
691.493	-0.0018
691.75	-0.0022
692.006	-0.0025
692.263	-0.0025
692.519	-0.0021
692.775	-0.0024
693.032	-0.0024
693.288	-0.0009
693.544	-0.0012
693.8	-0.0015
694.056	-0.0023
694.313	-0.0017
694.568	-0.0014
694.824	-0.0022
695.08	-0.0018
695.336	-0.0025
695.592	-0.0032
695.847	-0.0022
696.103	-0.0023
696.359	-0.0018
696.614	-0.0029
696.869	-0.0026
697.125	-0.0035
697.38	-0.0032
697.635	-0.0019
697.891	-0.0018
698.146	-0.0016
698.401	-0.002
698.656	-0.0026
698.911	-0.0025
699.166	-0.0018
699.42	-0.0012
699.675	-0.0013
699.93	-0.0012
700.185	-0.001
700.439	-0.0018
700.694	-0.0015
700.948	-0.0018
701.203	-0.0026
701.457	-0.0026
701.711	-0.0033
701.965	-0.0023
702.22	-0.003
702.474	-0.0029
702.728	-0.0022
702.982	-0.0019
703.236	-0.0016
703.49	-0.0012
703.743	-0.0018
703.997	-0.0023
704.251	-0.0028
704.504	-0.0027
704.758	-0.0032
705.012	-0.0024
705.265	-0.0012
705.518	-0.001
705.772	-0.0015
706.025	-0.002
706.278	-0.0025
706.531	-0.0037
706.785	-0.003
707.038	-0.0039
707.291	-0.0037
707.543	-0.0037
707.796	-0.0041
708.049	-0.0036
708.302	-0.0034
708.555	-0.0036
708.807	-0.0027
709.06	-0.003
709.312	-0.002
709.565	-0.0028
709.817	-0.0036
710.069	-0.0036
710.322	-0.0038
710.574	-0.0045
710.826	-0.0041
711.078	-0.004
711.33	-0.0042
711.582	-0.0052
711.834	-0.0051
712.086	-0.0049
712.338	-0.0062
712.59	-0.0052
712.841	-0.0062
713.093	-0.0065
713.344	-0.0064
713.596	-0.0053
713.847	-0.0036
714.099	-0.0049
714.35	-0.005
714.601	-0.0038
714.853	-0.0035
715.104	-0.0035
715.355	-0.0031
715.606	-0.0039
715.857	-0.0023
716.108	-0.0043
716.359	-0.0034
716.609	-0.0042
716.86	-0.0033
717.111	-0.0027
717.361	-0.0028
717.612	-0.0009
717.863	-0.0004
718.113	0.0008
718.363	-0.0007
718.614	0.0004
718.864	0.0003
719.114	-0.0004
719.364	0.0005
719.614	-0.0003
719.865	0.001
720.114	0.0011
720.364	0.0013
720.614	0.0013
720.864	0.0019
721.114	0.0013
721.364	0.0012
721.613	0.0009
721.863	0.0006
722.112	-0.0004
722.362	-0.0013
722.611	-0.0015
722.86	-0.0019
723.11	-0.001
723.359	-0.0021
723.608	-0.002
723.857	-0.0021
724.106	-0.0017
724.355	-0.0011
724.604	-0.0016
724.853	-0.0014
725.102	-0.0033
725.351	-0.0022
725.599	-0.0037
725.848	-0.003
726.097	-0.0029
726.345	-0.0031
726.594	-0.0043
726.842	-0.003
727.09	-0.0044
727.339	-0.0053
727.587	-0.0054
727.835	-0.0051
728.083	-0.0047
728.331	-0.0052
728.579	-0.0037
728.827	-0.0033
729.075	-0.0034
729.323	-0.0035
729.571	-0.0036
729.818	-0.0029
730.066	-0.0036
730.314	-0.0032
730.561	-0.0017
730.809	-0.001
731.056	-0.0007
731.303	-0.0006
731.551	-0.0013
731.798	-0.0008
732.045	-0.0018
732.292	-0.0004
732.539	0.0002
732.786	0.0013
733.033	0.0007
733.28	0.0004
733.527	0.0002
733.774	-0.0005
734.021	-0.0023
734.267	-0.0022
734.514	-0.0023
734.76	-0.0037
735.007	-0.0037
735.253	-0.0036
735.5	-0.0037
735.746	-0.0033
735.992	-0.0026
736.238	-0.0029
736.485	-0.0024
736.731	-0.0033
736.977	-0.0026
737.223	-0.0024
737.469	-0.0024
737.715	-0.0016
737.96	-0.0033
738.206	-0.0038
738.452	-0.0039
738.697	-0.0025
738.943	-0.0027
739.189	-0.0025
739.434	-0.0026
739.679	-0.0031
739.925	-0.0046
740.17	-0.0054
740.415	-0.006
740.66	-0.0069
740.906	-0.0066
741.151	-0.0057
741.396	-0.0064
741.641	-0.007
741.886	-0.0063
742.13	-0.0041
742.375	-0.0032
742.62	-0.0041
742.865	-0.0039
743.109	-0.002
743.354	-0.0017
743.598	-0.0003
743.843	-0.0006
744.087	0.0009
744.331	0.0008
744.576	0.0012
744.82	0.0023
745.064	0.0019
745.308	0.0025
745.552	0.0013
745.796	0.0004
746.04	0.0007
746.284	0
746.528	0.0006
746.771	0.0023
747.015	0.0017
747.259	0.0008
747.502	-0.0005
747.746	-0.0005
747.989	-0.0007
748.233	-0.0008
748.476	0.0008
748.719	0.001
748.963	0.0021
749.206	0.002
749.449	0.0001
749.692	0
749.935	0.0006
750.178	-0.0007
750.421	-0.0016
750.664	-0.0009
750.906	-0.0002
751.149	-0.0001
751.392	-0.001
751.635	-0.0018
751.877	-0.0013
752.12	-0.0009
752.362	-0.0015
752.604	-0.0016
752.847	0
753.089	0.0003
753.331	0.0003
753.573	-0.0001
753.816	-0.001
754.058	-0.002
754.3	-0.0036
754.542	-0.0031
754.783	-0.0036
755.025	-0.0026
755.267	-0.0013
755.509	-0.002
755.75	-0.0026
755.992	-0.0016
756.234	-0.0028
756.475	-0.003
756.716	-0.0028
756.958	-0.0029
757.199	-0.0029
757.44	-0.0025
757.682	-0.0022
757.923	-0.0018
758.164	-0.0008
758.405	-0.0016
758.646	0.0001
758.887	0
759.128	-0.0001
759.369	-0.0006
759.609	0.0006
759.85	0.0002
760.091	0.0007
760.331	0.0001
760.572	-0.0011
760.812	-0.0008
761.053	-0.0014
761.293	-0.0011
761.533	-0.0008
761.774	0.0003
762.014	0.0002
762.254	-0.0004
762.494	-0.0016
762.734	-0.0014
762.974	-0.0021
763.214	-0.0022
763.454	-0.0024
763.694	-0.0023
763.933	-0.0027
764.173	-0.0044
764.413	-0.0051
764.652	-0.0053
764.892	-0.0047
765.131	-0.0041
765.371	-0.0044
765.61	-0.0041
765.849	-0.0037
766.089	-0.0032
766.328	-0.0029
766.567	-0.0034
766.806	-0.003
767.045	-0.002
767.284	-0.0026
767.523	-0.0019
767.762	-0.0034
768.001	-0.0021
768.239	-0.002
768.478	-0.0016
768.717	-0.0007
768.955	-0.0015
769.194	-0.0013
769.432	-0.0001
769.671	0.0004
769.909	0.0011
770.148	0.0005
770.386	0.0008
770.624	0.001
770.862	0.0011
771.1	0.0013
771.338	0.0012
771.576	-0.0006
771.814	0.001
772.052	0.0007
772.29	0.0017
772.528	0.0023
772.765	0.0035
773.003	0.0033
773.24	0.0024
773.478	0.0016
773.716	0.0012
773.953	0.001
774.19	0.0008
774.428	0.0022
774.665	0.0015
774.902	0.0027
775.139	0.0023
775.376	0.002
775.613	0.0014
775.85	0.0014
776.087	0.0011
776.324	0.0011
776.561	0.0002
776.798	0.0004
777.034	-0.0002
777.271	0.0009
777.508	0.0008
777.744	0.0018
777.981	0.002
778.217	0.0023
778.454	0.0013
778.69	-0.0005
778.926	-0.0015
779.162	-0.0016
779.399	-0.0018
779.635	-0.0022
779.871	-0.0018
780.107	-0.0021
780.343	-0.0024
780.579	-0.0016
780.814	-0.0023
781.05	-0.0017
781.286	-0.0026
781.522	-0.0021
781.757	-0.0016
781.993	-0.0022
782.228	-0.0032
782.464	-0.0023
782.699	-0.0029
782.934	-0.0034
783.17	-0.0026
783.405	-0.0025
783.64	-0.0037
783.875	-0.0037
784.11	-0.0046
784.345	-0.0035
784.58	-0.0021
784.815	-0.0029
785.05	-0.0035
785.285	-0.0045
785.52	-0.0044
785.754	-0.005
785.989	-0.0055
786.223	-0.0069
786.458	-0.007
786.692	-0.0058
786.927	-0.005
787.161	-0.005
787.396	-0.0044
787.63	-0.0054
787.864	-0.0054
788.098	-0.0065
788.332	-0.0048
788.566	-0.0041
788.8	-0.0038
789.034	-0.0034
789.268	-0.0035
789.502	-0.0032
789.736	-0.003
789.969	-0.0034
790.203	-0.0042
790.437	-0.0053
790.67	-0.0062
790.904	-0.0073
791.137	-0.0071
791.37	-0.0075
791.604	-0.0077
791.837	-0.0079
792.07	-0.0073
792.303	-0.0065
792.537	-0.007
792.77	-0.0073
793.003	-0.0067
793.236	-0.0057
793.469	-0.0059
793.701	-0.0054
793.934	-0.0039
794.167	-0.0029
794.4	-0.003
794.632	-0.0024
794.865	-0.002
795.097	-0.0019
795.33	-0.0025
795.562	-0.002
795.795	-0.0008
796.027	-0.0005
796.259	-0.0007
796.491	-0.0006
796.724	-0.0004
796.956	0.0004
797.188	0
797.42	-0
797.652	-0.0008
797.883	-0.0004
798.115	0.0003
798.347	-0.0008
798.579	0.0011
798.81	0.0015
799.042	0.0018
799.274	0.0012
799.505	0.0007
799.737	0.0003
799.968	-0.0006
800.199	-0.0008
800.431	-0.0009
800.662	-0.0014
800.893	-0.0021
801.124	-0.0022
801.355	-0.0029
801.586	-0.0023
801.817	-0.0029
802.048	-0.0048
802.279	-0.004
802.51	-0.0023
802.741	-0.0019
802.971	-0.0005
803.202	0
803.433	0
803.663	-0.0011
803.894	-0.0023
804.124	-0.0018
804.354	-0.0023
804.585	-0.0015
804.815	-0.0008
805.045	-0.0017
805.275	-0.0013
805.506	-0.078
805.736	0.0652
805.966	0.0215
806.196	0.0686
