Data from 03 0.5 mM K2Cr2O7 0.3 mM BQDS 1 M H2SO4 5 min_Absorbance_0081.txt Node
Date: Tue Dec 14 00:24:46 EST 2021
User: kwabilab-user
Spectrometer: HDX00518
Trigger mode: 0
Integration Time (sec): 5.000000E-2
Scans to average: 50
Nonlinearity correction enabled: false
Boxcar width: 0
Storing dark spectrum: false
XAxis mode: Wavelengths
Number of Pixels in Spectrum: 2068
>>>>>Begin Spectral Data<<<<<
195.27	-0.0076
195.642	0.1291
196.014	0.1078
196.386	0.3053
196.758	0.0092
197.129	-0.004
197.501	0.0015
197.872	0.0229
198.244	0.0432
198.615	0.0621
198.986	0.0419
199.357	0.0621
199.728	0.0295
200.099	0.0505
200.47	0.0322
200.841	0.0407
201.212	0.0537
201.582	0.0542
201.953	0.0505
202.323	0.0626
202.694	0.0541
203.064	0.0374
203.434	0.0494
203.804	0.0307
204.174	0.0522
204.544	0.0449
204.914	0.0498
205.284	0.0678
205.653	0.0392
206.023	0.0588
206.393	0.0388
206.762	0.0577
207.131	0.0656
207.501	0.0222
207.87	0.0603
208.239	0.055
208.608	0.0407
208.977	0.0445
209.346	0.046
209.715	0.0422
210.083	0.0295
210.452	0.0126
210.82	0.0444
211.189	0.0164
211.557	0.0697
211.925	0.0121
212.294	0.0397
212.662	0.0597
213.03	0.0578
213.398	0.0514
213.766	0.0763
214.133	0.063
214.501	0.0684
214.869	0.0634
215.236	0.0669
215.604	0.0559
215.971	0.0701
216.338	0.0653
216.705	0.0775
217.072	0.0812
217.439	0.0434
217.806	0.085
218.173	0.0752
218.54	0.0874
218.907	0.0806
219.273	0.093
219.64	0.1
220.006	0.1215
220.373	0.1013
220.739	0.1209
221.105	0.1342
221.471	0.1702
221.837	0.1799
222.203	0.2072
222.569	0.1972
222.935	0.2254
223.3	0.2381
223.666	0.2675
224.031	0.2948
224.397	0.2894
224.762	0.3304
225.127	0.3566
225.493	0.375
225.858	0.3917
226.223	0.4254
226.588	0.4594
226.952	0.4617
227.317	0.491
227.682	0.5122
228.046	0.5025
228.411	0.5452
228.775	0.5513
229.14	0.5715
229.504	0.5782
229.868	0.5827
230.232	0.6137
230.596	0.5951
230.96	0.6492
231.324	0.6202
231.688	0.655
232.052	0.6509
232.415	0.6661
232.779	0.6736
233.142	0.6788
233.505	0.6759
233.869	0.703
234.232	0.6864
234.595	0.6955
234.958	0.6879
235.321	0.7014
235.684	0.6862
236.047	0.6973
236.409	0.6877
236.772	0.6937
237.134	0.6995
237.497	0.6906
237.859	0.6994
238.222	0.6864
238.584	0.6876
238.946	0.6902
239.308	0.6855
239.67	0.6893
240.032	0.6826
240.393	0.6968
240.755	0.6822
241.117	0.6869
241.478	0.6871
241.84	0.6786
242.201	0.6747
242.562	0.6689
242.924	0.6633
243.285	0.6645
243.646	0.679
244.007	0.6604
244.368	0.6716
244.728	0.66
245.089	0.6585
245.45	0.653
245.81	0.6599
246.171	0.6573
246.531	0.6575
246.891	0.657
247.252	0.6549
247.612	0.6541
247.972	0.6563
248.332	0.653
248.692	0.657
249.051	0.6558
249.411	0.6549
249.771	0.6524
250.13	0.6535
250.49	0.6501
250.849	0.6549
251.208	0.6507
251.568	0.647
251.927	0.6514
252.286	0.655
252.645	0.6493
253.004	0.6551
253.363	0.6553
253.721	0.6553
254.08	0.6476
254.439	0.6434
254.797	0.6454
255.155	0.6452
255.514	0.6431
255.872	0.6511
256.23	0.644
256.588	0.6467
256.946	0.6412
257.304	0.6406
257.662	0.6508
258.02	0.6429
258.377	0.6401
258.735	0.6346
259.093	0.6394
259.45	0.6372
259.807	0.634
260.165	0.6343
260.522	0.6258
260.879	0.6356
261.236	0.6279
261.593	0.6242
261.95	0.6283
262.306	0.6216
262.663	0.6208
263.02	0.6209
263.376	0.615
263.733	0.6126
264.089	0.6115
264.445	0.6084
264.802	0.6088
265.158	0.6056
265.514	0.6014
265.87	0.5961
266.226	0.5948
266.581	0.5968
266.937	0.5923
267.293	0.5915
267.648	0.5826
268.004	0.5808
268.359	0.5848
268.714	0.5799
269.07	0.5763
269.425	0.5726
269.78	0.5622
270.135	0.5649
270.49	0.5645
270.844	0.5644
271.199	0.5607
271.554	0.5583
271.908	0.5509
272.263	0.55
272.617	0.54
272.972	0.5445
273.326	0.535
273.68	0.5345
274.034	0.5314
274.388	0.5289
274.742	0.5238
275.096	0.5187
275.45	0.5182
275.803	0.5167
276.157	0.5106
276.51	0.5064
276.864	0.4995
277.217	0.4947
277.571	0.4959
277.924	0.4875
278.277	0.4837
278.63	0.4805
278.983	0.4735
279.336	0.4723
279.688	0.465
280.041	0.4556
280.394	0.4595
280.746	0.4538
281.099	0.4494
281.451	0.4432
281.803	0.4385
282.156	0.435
282.508	0.4314
282.86	0.424
283.212	0.4206
283.564	0.4157
283.916	0.4137
284.267	0.4084
284.619	0.4044
284.971	0.399
285.322	0.3925
285.673	0.389
286.025	0.3827
286.376	0.3809
286.727	0.3745
287.078	0.3735
287.429	0.3687
287.78	0.3647
288.131	0.3596
288.482	0.3553
288.833	0.3501
289.183	0.3454
289.534	0.3423
289.884	0.3355
290.235	0.3335
290.585	0.3291
290.935	0.3241
291.285	0.3181
291.635	0.316
291.985	0.3123
292.335	0.3076
292.685	0.3033
293.035	0.2997
293.384	0.2956
293.734	0.2916
294.083	0.2872
294.433	0.2827
294.782	0.2782
295.131	0.2741
295.48	0.2692
295.829	0.2676
296.179	0.2625
296.527	0.2586
296.876	0.2552
297.225	0.2514
297.574	0.2471
297.922	0.2443
298.271	0.2392
298.619	0.2376
298.968	0.2324
299.316	0.2293
299.664	0.2261
300.012	0.2243
300.36	0.2204
300.708	0.2184
301.056	0.2152
301.404	0.2103
301.752	0.2093
302.099	0.2049
302.447	0.203
302.794	0.2008
303.142	0.1986
303.489	0.1944
303.836	0.1933
304.183	0.1906
304.531	0.1876
304.878	0.1862
305.224	0.1853
305.571	0.1827
305.918	0.1807
306.265	0.1789
306.611	0.1771
306.958	0.1758
307.304	0.174
307.651	0.1736
307.997	0.1717
308.343	0.1698
308.689	0.1685
309.035	0.1676
309.381	0.1669
309.727	0.1664
310.073	0.1655
310.419	0.1638
310.764	0.1626
311.11	0.163
311.455	0.1628
311.801	0.1626
312.146	0.1621
312.491	0.1623
312.837	0.161
313.182	0.1594
313.527	0.1601
313.872	0.1606
314.216	0.1604
314.561	0.1605
314.906	0.16
315.251	0.1603
315.595	0.1614
315.94	0.162
316.284	0.1616
316.628	0.1623
316.972	0.1638
317.317	0.1641
317.661	0.1633
318.005	0.164
318.348	0.1656
318.692	0.1669
319.036	0.1667
319.38	0.1676
319.723	0.1687
320.067	0.1695
320.41	0.171
320.754	0.1729
321.097	0.1735
321.44	0.1748
321.783	0.1758
322.126	0.1781
322.469	0.1778
322.812	0.1795
323.155	0.1812
323.498	0.1818
323.84	0.1841
324.183	0.1861
324.525	0.1872
324.868	0.1895
325.21	0.1895
325.552	0.1922
325.894	0.1933
326.236	0.1947
326.578	0.1962
326.92	0.198
327.262	0.2003
327.604	0.2014
327.946	0.2029
328.287	0.2052
328.629	0.2073
328.97	0.2088
329.312	0.2101
329.653	0.2114
329.994	0.214
330.335	0.2155
330.676	0.2177
331.017	0.2196
331.358	0.2214
331.699	0.2236
332.04	0.2247
332.38	0.2272
332.721	0.2284
333.061	0.2308
333.402	0.2323
333.742	0.2344
334.083	0.2361
334.423	0.237
334.763	0.2393
335.103	0.2403
335.443	0.2414
335.783	0.2436
336.123	0.2446
336.462	0.2459
336.802	0.2481
337.141	0.2494
337.481	0.2511
337.82	0.252
338.16	0.2525
338.499	0.2547
338.838	0.2556
339.177	0.2585
339.516	0.2596
339.855	0.2612
340.194	0.2623
340.533	0.2633
340.872	0.2642
341.21	0.266
341.549	0.2665
341.887	0.2675
342.226	0.2684
342.564	0.2705
342.902	0.27
343.24	0.2714
343.578	0.2715
343.916	0.272
344.254	0.2724
344.592	0.2734
344.93	0.2731
345.268	0.2738
345.605	0.2728
345.943	0.2743
346.28	0.2744
346.618	0.2752
346.955	0.2754
347.292	0.2764
347.629	0.2764
347.966	0.2755
348.303	0.2765
348.64	0.2769
348.977	0.2763
349.314	0.2774
349.65	0.2766
349.987	0.2766
350.324	0.2767
350.66	0.2764
350.996	0.2756
351.333	0.2758
351.669	0.2755
352.005	0.2746
352.341	0.2733
352.677	0.2723
353.013	0.2722
353.349	0.2703
353.685	0.27
354.02	0.2679
354.356	0.267
354.691	0.2653
355.027	0.265
355.362	0.2637
355.697	0.2635
356.033	0.2627
356.368	0.2611
356.703	0.2601
357.038	0.2599
357.373	0.2579
357.707	0.2566
358.042	0.2562
358.377	0.2557
358.711	0.2535
359.046	0.2518
359.38	0.252
359.715	0.251
360.049	0.2497
360.383	0.2481
360.717	0.2468
361.051	0.2448
361.385	0.2434
361.719	0.2413
362.053	0.2404
362.387	0.2374
362.72	0.2353
363.054	0.2331
363.387	0.232
363.721	0.2302
364.054	0.2274
364.387	0.2263
364.721	0.2242
365.054	0.2218
365.387	0.2205
365.72	0.2182
366.053	0.2167
366.385	0.2144
366.718	0.213
367.051	0.2114
367.383	0.2106
367.716	0.2089
368.048	0.2075
368.381	0.2049
368.713	0.204
369.045	0.2033
369.377	0.2008
369.709	0.2
370.041	0.1982
370.373	0.1963
370.705	0.1945
371.037	0.1925
371.368	0.1907
371.7	0.1899
372.031	0.1874
372.363	0.1857
372.694	0.1828
373.025	0.181
373.356	0.1789
373.688	0.1766
374.019	0.1744
374.35	0.1729
374.68	0.1699
375.011	0.1681
375.342	0.1657
375.673	0.1637
376.003	0.1608
376.334	0.1595
376.664	0.1578
376.995	0.155
377.325	0.1535
377.655	0.1524
377.985	0.1509
378.315	0.1487
378.645	0.148
378.975	0.1458
379.305	0.1442
379.635	0.1439
379.964	0.142
380.294	0.1402
380.623	0.1389
380.953	0.1379
381.282	0.1356
381.611	0.1338
381.941	0.1327
382.27	0.1308
382.599	0.1288
382.928	0.1274
383.257	0.1262
383.585	0.1248
383.914	0.123
384.243	0.1213
384.571	0.1189
384.9	0.1164
385.228	0.1158
385.557	0.1132
385.885	0.1116
386.213	0.1096
386.541	0.1085
386.869	0.1066
387.197	0.1046
387.525	0.1028
387.853	0.101
388.181	0.1
388.508	0.098
388.836	0.0965
389.164	0.0944
389.491	0.0942
389.818	0.0923
390.146	0.091
390.473	0.0894
390.8	0.0886
391.127	0.0864
391.454	0.0852
391.781	0.0848
392.108	0.0835
392.435	0.0823
392.761	0.0809
393.088	0.0802
393.415	0.0793
393.741	0.0783
394.067	0.0771
394.394	0.0763
394.72	0.0749
395.046	0.0745
395.372	0.0739
395.698	0.073
396.024	0.0719
396.35	0.0705
396.676	0.0691
397.001	0.0685
397.327	0.0672
397.653	0.0666
397.978	0.0651
398.303	0.0639
398.629	0.0627
398.954	0.0615
399.279	0.0613
399.604	0.0602
399.929	0.0598
400.254	0.0591
400.579	0.0588
400.904	0.0584
401.229	0.0572
401.553	0.0562
401.878	0.0558
402.202	0.0545
402.527	0.054
402.851	0.0536
403.175	0.0528
403.5	0.0526
403.824	0.0522
404.148	0.0519
404.472	0.0507
404.796	0.0509
405.119	0.0509
405.443	0.0501
405.767	0.0487
406.09	0.0494
406.414	0.0489
406.737	0.0484
407.061	0.0476
407.384	0.0478
407.707	0.0472
408.03	0.0473
408.353	0.0479
408.676	0.0475
408.999	0.0467
409.322	0.0466
409.645	0.0466
409.968	0.0462
410.29	0.0455
410.613	0.0465
410.935	0.0469
411.258	0.0454
411.58	0.0452
411.902	0.0457
412.224	0.0455
412.546	0.0452
412.868	0.0449
413.19	0.045
413.512	0.0448
413.834	0.0438
414.156	0.0445
414.477	0.045
414.799	0.0447
415.121	0.0451
415.442	0.0443
415.763	0.0438
416.085	0.0448
416.406	0.0444
416.727	0.0447
417.048	0.0441
417.369	0.0437
417.69	0.0436
418.011	0.0437
418.331	0.0434
418.652	0.0445
418.973	0.0446
419.293	0.0442
419.614	0.0437
419.934	0.0446
420.254	0.0442
420.574	0.0445
420.895	0.0444
421.215	0.0442
421.535	0.0445
421.855	0.0438
422.174	0.044
422.494	0.0435
422.814	0.0434
423.134	0.0439
423.453	0.0443
423.773	0.0441
424.092	0.044
424.411	0.0434
424.731	0.044
425.05	0.0435
425.369	0.044
425.688	0.044
426.007	0.0434
426.326	0.0442
426.644	0.0445
426.963	0.045
427.282	0.0444
427.6	0.0444
427.919	0.0439
428.237	0.0447
428.556	0.0443
428.874	0.0447
429.192	0.045
429.51	0.045
429.828	0.0446
430.146	0.0448
430.464	0.044
430.782	0.0446
431.1	0.0445
431.418	0.0443
431.735	0.0442
432.053	0.0445
432.37	0.0449
432.688	0.0447
433.005	0.0445
433.322	0.0447
433.639	0.0446
433.957	0.0446
434.274	0.0448
434.591	0.0447
434.907	0.0443
435.224	0.0444
435.541	0.0446
435.858	0.0453
436.174	0.0453
436.491	0.044
436.807	0.0433
437.124	0.0438
437.44	0.0439
437.756	0.0443
438.072	0.0443
438.388	0.0448
438.704	0.0444
439.02	0.0442
439.336	0.0439
439.652	0.0436
439.968	0.0429
440.283	0.0429
440.599	0.0434
440.914	0.0445
441.23	0.0442
441.545	0.0435
441.86	0.0433
442.175	0.0431
442.491	0.0435
442.806	0.0433
443.121	0.0435
443.435	0.0435
443.75	0.0434
444.065	0.0426
444.38	0.0424
444.694	0.043
445.009	0.043
445.323	0.0429
445.638	0.0416
445.952	0.043
446.266	0.043
446.58	0.0428
446.894	0.0426
447.208	0.0426
447.522	0.042
447.836	0.0421
448.15	0.0417
448.464	0.0419
448.777	0.0419
449.091	0.0416
449.404	0.0414
449.718	0.0414
450.031	0.0411
450.345	0.0407
450.658	0.0419
450.971	0.0408
451.284	0.0409
451.597	0.0401
451.91	0.0408
452.223	0.0412
452.535	0.0393
452.848	0.0401
453.161	0.0391
453.473	0.0398
453.786	0.0386
454.098	0.0393
454.411	0.0403
454.723	0.0387
455.035	0.0389
455.347	0.0386
455.659	0.0389
455.971	0.039
456.283	0.038
456.595	0.0383
456.907	0.0388
457.218	0.0384
457.53	0.0366
457.841	0.0385
458.153	0.0373
458.464	0.0373
458.776	0.0376
459.087	0.0374
459.398	0.0374
459.709	0.037
460.02	0.0376
460.331	0.036
460.642	0.0362
460.953	0.0357
461.263	0.0348
461.574	0.0358
461.885	0.0354
462.195	0.0349
462.506	0.0349
462.816	0.0347
463.126	0.0349
463.437	0.034
463.747	0.0337
464.057	0.0341
464.367	0.0342
464.677	0.0328
464.987	0.0325
465.296	0.0335
465.606	0.0323
465.916	0.0321
466.225	0.032
466.535	0.0319
466.844	0.0324
467.154	0.0322
467.463	0.0313
467.772	0.0316
468.081	0.0317
468.39	0.0307
468.699	0.0308
469.008	0.03
469.317	0.0298
469.626	0.0285
469.935	0.029
470.243	0.0289
470.552	0.029
470.86	0.029
471.169	0.0286
471.477	0.0287
471.785	0.0285
472.093	0.0286
472.402	0.0278
472.71	0.028
473.018	0.0277
473.326	0.0266
473.633	0.0273
473.941	0.027
474.249	0.0261
474.556	0.0279
474.864	0.027
475.171	0.0263
475.479	0.0255
475.786	0.026
476.094	0.0256
476.401	0.025
476.708	0.0252
477.015	0.025
477.322	0.0248
477.629	0.0241
477.936	0.0243
478.242	0.0227
478.549	0.024
478.856	0.024
479.162	0.0226
479.469	0.0232
479.775	0.0236
480.081	0.0231
480.388	0.0229
480.694	0.022
481	0.0217
481.306	0.0215
481.612	0.0219
481.918	0.0215
482.224	0.0211
482.53	0.021
482.835	0.0214
483.141	0.0205
483.446	0.0208
483.752	0.02
484.057	0.02
484.363	0.0193
484.668	0.0191
484.973	0.019
485.278	0.0185
485.583	0.0183
485.888	0.0187
486.193	0.0181
486.498	0.0173
486.803	0.0171
487.107	0.0176
487.412	0.0175
487.717	0.0173
488.021	0.0168
488.325	0.0181
488.63	0.0175
488.934	0.0169
489.238	0.0165
489.542	0.0156
489.846	0.016
490.15	0.0163
490.454	0.0151
490.758	0.0158
491.062	0.015
491.366	0.0149
491.669	0.014
491.973	0.0152
492.276	0.0143
492.58	0.0147
492.883	0.0132
493.186	0.0133
493.489	0.0141
493.792	0.0125
494.096	0.0126
494.399	0.0124
494.701	0.0136
495.004	0.0118
495.307	0.0128
495.61	0.0122
495.912	0.0122
496.215	0.0114
496.517	0.0105
496.82	0.0114
497.122	0.0107
497.424	0.0112
497.727	0.0105
498.029	0.0098
498.331	0.0107
498.633	0.011
498.935	0.0114
499.237	0.01
499.538	0.0092
499.84	0.0092
500.142	0.0097
500.443	0.0085
500.745	0.0097
501.046	0.0078
501.348	0.0085
501.649	0.0076
501.95	0.0082
502.251	0.0083
502.552	0.008
502.853	0.0071
503.154	0.0072
503.455	0.0079
503.756	0.0072
504.057	0.0084
504.357	0.0064
504.658	0.0072
504.958	0.0074
505.259	0.0072
505.559	0.0069
505.859	0.0064
506.16	0.0065
506.46	0.0061
506.76	0.0063
507.06	0.0064
507.36	0.0061
507.66	0.0062
507.96	0.0063
508.259	0.0058
508.559	0.0061
508.859	0.006
509.158	0.0051
509.457	0.0049
509.757	0.0047
510.056	0.0063
510.355	0.0049
510.655	0.0044
510.954	0.0056
511.253	0.0052
511.552	0.0049
511.851	0.0052
512.149	0.0031
512.448	0.0047
512.747	0.0043
513.045	0.0042
513.344	0.0034
513.642	0.0029
513.941	0.0038
514.239	0.0029
514.537	0.0024
514.836	0.0035
515.134	0.0023
515.432	0.004
515.73	0.0036
516.028	0.0039
516.326	0.0033
516.623	0.0027
516.921	0.0015
517.219	0.0033
517.516	0.0028
517.814	0.0025
518.111	0.0025
518.409	0.0006
518.706	0.0015
519.003	0.0032
519.3	0.0021
519.597	0.0018
519.894	0.0026
520.191	0.0013
520.488	0.002
520.785	0.0009
521.082	0.0025
521.378	0.0004
521.675	0.0018
521.971	0.0012
522.268	0.0021
522.564	0.0011
522.861	0.0025
523.157	0.0019
523.453	0.0025
523.749	0.0013
524.045	0.0022
524.341	0.0003
524.637	0.0012
524.933	0.0008
525.229	0.0007
525.524	0.0001
525.82	0.001
526.115	0
526.411	0.0008
526.706	-0.0003
527.002	0.0012
527.297	-0.0007
527.592	0.0004
527.887	0.0029
528.182	0.0008
528.477	0.0019
528.772	0.0009
529.067	0.0005
529.362	0.0014
529.657	0.0008
529.951	0.0011
530.246	-0.0004
530.54	0.0004
530.835	0
531.129	0.0002
531.423	-0.0003
531.718	0.0002
532.012	-0.0006
532.306	0
532.6	-0.0011
532.894	-0.0006
533.188	0.0004
533.482	-0.0001
533.775	0.0001
534.069	-0.0006
534.363	-0.0016
534.656	-0.0015
534.95	0.0002
535.243	-0.0006
535.536	0.0007
535.83	-0.0013
536.123	-0.0009
536.416	-0.0007
536.709	-0.0007
537.002	-0.0001
537.295	-0.0004
537.588	-0.0009
537.881	-0.0016
538.173	-0.0006
538.466	-0.0005
538.759	-0.0013
539.051	-0.0001
539.344	-0.0004
539.636	0.0002
539.928	-0.0006
540.22	0.001
540.513	-0.0012
540.805	-0.0001
541.097	-0.0013
541.389	-0.0004
541.681	0.0002
541.972	0
542.264	0.0011
542.556	0.0006
542.847	0.0003
543.139	0.0004
543.431	0.0009
543.722	0.0004
544.013	0.0005
544.305	-0.0007
544.596	-0.0005
544.887	0.0006
545.178	-0.0001
545.469	-0.0013
545.76	-0.0004
546.051	-0.0001
546.342	-0.0001
546.632	-0.0007
546.923	-0.0001
547.214	-0.001
547.504	-0.0007
547.795	-0.0007
548.085	-0.0015
548.375	-0.0007
548.666	-0.0017
548.956	-0.0011
549.246	-0.0008
549.536	-0.0011
549.826	-0.0005
550.116	-0.001
550.406	-0.0011
550.695	-0.0021
550.985	-0.0006
551.275	-0.0013
551.564	-0.0009
551.854	-0.0002
552.143	-0.0013
552.433	-0.0019
552.722	-0.0024
553.011	-0.0004
553.3	-0.0005
553.589	-0.0005
553.879	-0.0005
554.167	-0.0008
554.456	0.0001
554.745	-0.0003
555.034	-0.0012
555.323	0.0002
555.611	-0.0005
555.9	-0.0001
556.188	-0.0015
556.477	-0.0007
556.765	-0.0028
557.053	-0.0018
557.342	-0.0007
557.63	-0.0019
557.918	-0.0003
558.206	0.0002
558.494	-0.0002
558.782	-0.0004
559.069	0.0015
559.357	0.0005
559.645	0.0001
559.932	0
560.22	-0.0014
560.507	-0.0019
560.795	-0.001
561.082	-0.0014
561.37	-0
561.657	-0.0011
561.944	-0.0013
562.231	-0.0004
562.518	-0
562.805	-0.0001
563.092	0.0005
563.379	-0.0004
563.665	0.0009
563.952	-0
564.239	-0
564.525	0.0001
564.811	0.001
565.098	0.0005
565.384	-0.0011
565.67	0.0007
565.957	0.0007
566.243	0.002
566.529	0.0005
566.815	-0.0002
567.101	0.0011
567.387	0.0005
567.672	-0
567.958	0.0017
568.244	-0
568.529	0.0006
568.815	-0.0004
569.1	-0.0009
569.386	-0.0013
569.671	0.0013
569.956	0
570.242	-0.0003
570.527	-0.0008
570.812	0.0004
571.097	0
571.382	-0.0007
571.666	0.0004
571.951	-0.0002
572.236	0.0002
572.521	-0.0004
572.805	-0.0005
573.09	0
573.374	-0.0015
573.659	-0.0006
573.943	-0.0006
574.227	-0.0005
574.511	-0.0011
574.795	-0.0004
575.079	-0.0005
575.363	-0.0009
575.647	-0.0011
575.931	0.0003
576.215	-0.0014
576.499	-0.0013
576.782	-0.0015
577.066	-0.0007
577.349	-0.0001
577.633	-0.0012
577.916	-0.0012
578.2	-0
578.483	-0.0006
578.766	0.0001
579.049	-0.0001
579.332	0.0001
579.615	0.0001
579.898	-0.0008
580.181	0.0007
580.464	0.001
580.746	0.0001
581.029	-0.0009
581.312	-0.0011
581.594	-0.0012
581.877	-0.0008
582.159	-0.0014
582.441	-0.0013
582.724	-0.0006
583.006	0.0004
583.288	0.0006
583.57	0.0002
583.852	0.0004
584.134	0.0007
584.416	0.0003
584.697	0
584.979	-0.0008
585.261	-0.0016
585.542	-0.0014
585.824	-0.0008
586.105	-0.0014
586.387	-0.0011
586.668	-0.0004
586.949	-0.0002
587.231	0
587.512	-0.0006
587.793	-0.0007
588.074	-0.0008
588.355	-0.0002
588.636	-0.0015
588.916	-0.0011
589.197	-0
589.478	-0.0001
589.758	-0.0005
590.039	0.0005
590.319	-0.0003
590.6	0.0008
590.88	0.0007
591.16	0.0012
591.441	0.0012
591.721	-0.0006
592.001	-0.0007
592.281	-0.0002
592.561	-0
592.841	-0.0005
593.12	-0.0023
593.4	-0.0009
593.68	-0.002
593.959	-0.0014
594.239	-0.0012
594.518	-0.0008
594.798	0.0005
595.077	-0.0008
595.356	-0.001
595.636	-0.0011
595.915	0.0002
596.194	-0.0002
596.473	-0.0005
596.752	0.0002
597.031	0.0001
597.31	0.0007
597.588	-0.0009
597.867	-0.0003
598.146	-0.0011
598.424	0.0002
598.703	-0.0003
598.981	-0.0012
599.259	-0.0017
599.538	-0.001
599.816	-0.0002
600.094	-0.0012
600.372	-0.002
600.65	-0.0008
600.928	-0.0011
601.206	-0.0003
601.484	-0.0001
601.762	0.0003
602.04	-0.0002
602.317	-0.0005
602.595	-0.0005
602.872	-0.0004
603.15	0.0007
603.427	-0.0016
603.704	-0.0011
603.982	-0.0009
604.259	-0.0007
604.536	-0
604.813	-0.0006
605.09	-0.0005
605.367	-0.0002
605.644	-0.0014
605.921	-0.001
606.197	-0.0007
606.474	-0.0013
606.751	-0.0006
607.027	-0.0008
607.304	-0.001
607.58	-0.0005
607.856	-0.0011
608.133	-0.0013
608.409	-0.0002
608.685	-0.0015
608.961	-0.0011
609.237	-0.0005
609.513	-0.0007
609.789	-0.0009
610.065	0.0001
610.341	-0.0006
610.616	0.0001
610.892	0.001
611.167	0.0012
611.443	0.0006
611.718	0.0002
611.994	-0.0006
612.269	0.0004
612.544	-0.0012
612.819	-0.0015
613.095	-0.0005
613.37	-0.0002
613.645	-0.0008
613.919	-0.0007
614.194	-0.0001
614.469	0.0001
614.744	-0.0003
615.019	-0.0006
615.293	-0.001
615.568	-0.0008
615.842	-0.0003
616.116	0.0004
616.391	0.0006
616.665	0.0007
616.939	0.0003
617.213	0.0013
617.488	0.0009
617.762	-0.0005
618.035	-0.0001
618.309	-0.0011
618.583	0.0006
618.857	0.0009
619.131	0.0013
619.404	0.0014
619.678	0.0009
619.951	-0.0007
620.225	-0.0005
620.498	0.0002
620.771	-0.0006
621.045	-0.0006
621.318	-0.0017
621.591	-0.0019
621.864	-0.0014
622.137	-0.0016
622.41	-0.0018
622.683	-0.0005
622.956	-0.0012
623.228	-0.0007
623.501	0.0002
623.774	-0.0005
624.046	-0
624.319	-0.0013
624.591	-0.0014
624.863	-0.0007
625.136	0.0004
625.408	0.0006
625.68	0.0004
625.952	0.0006
626.224	0.0001
626.496	-0.0001
626.768	-0.0002
627.04	-0.0003
627.311	-0.0013
627.583	-0.0011
627.855	0.0006
628.126	0.0011
628.398	0.0016
628.669	0.0014
628.941	0.001
629.212	0.0012
629.483	0.0005
629.755	0.0008
630.026	0.0014
630.297	0.0015
630.568	0.0009
630.839	0.0017
631.11	0.001
631.38	0.0012
631.651	0.0011
631.922	0.0012
632.192	0.0001
632.463	-0
632.733	-0.0003
633.004	0.0005
633.274	0.0004
633.545	0.0012
633.815	-0.0003
634.085	-0.001
634.355	-0.0017
634.625	-0.0017
634.895	-0.0011
635.165	-0.0007
635.435	-0.002
635.705	-0.0012
635.974	-0.0023
636.244	-0.0009
636.514	0.0001
636.783	-0.0012
637.053	-0.0016
637.322	0
637.591	-0.0004
637.861	-0.0022
638.13	-0.0006
638.399	-0.0008
638.668	-0.001
638.937	-0.0024
639.206	-0.0029
639.475	-0.0024
639.744	-0.0016
640.013	-0.0013
640.281	-0.0013
640.55	-0.0007
640.819	-0.0013
641.087	-0.0019
641.356	-0.0015
641.624	-0.0005
641.892	0.0009
642.161	0
642.429	-0.0008
642.697	-0.0006
642.965	-0.0005
643.233	-0.0001
643.501	-0.0012
643.769	0
644.037	0.0008
644.305	-0.0011
644.572	-0.0001
644.84	-0.0007
645.108	-0.0014
645.375	-0.0024
645.643	-0.0016
645.91	0.0002
646.177	0.0006
646.445	0.0004
646.712	0.0021
646.979	0.0025
647.246	0.0031
647.513	0.003
647.78	0.0015
648.047	0.0006
648.314	-0.0014
648.58	-0.001
648.847	-0.0016
649.114	0
649.38	-0.0001
649.647	-0.0009
649.913	-0.0007
650.18	-0.0004
650.446	0.0007
650.712	-0.0013
650.978	-0.0006
651.245	-0.0013
651.511	-0.0005
651.777	-0.0008
652.043	-0.0005
652.309	0.0013
652.574	0.0015
652.84	0.0022
653.106	0.0014
653.371	0.0017
653.637	0.0017
653.903	0.0017
654.168	0.0026
654.433	0.0029
654.699	0.0027
654.964	0.0028
655.229	0.0014
655.494	0.0003
655.759	-0.0024
656.024	-0.0001
656.289	-0
656.554	-0.0009
656.819	0.0003
657.084	-0.0005
657.349	0.0004
657.613	0.0007
657.878	0.0003
658.142	-0
658.407	-0
658.671	0.0007
658.936	0.001
659.2	0.0007
659.464	0.0009
659.728	0.0011
659.992	0.0009
660.256	0.0006
660.52	0.0006
660.784	0.0003
661.048	0.0007
661.312	0.0008
661.575	0.0008
661.839	0.0008
662.103	0.0007
662.366	-0.0001
662.63	-0.0004
662.893	-0.0008
663.156	-0.0006
663.42	-0.0016
663.683	-0.003
663.946	-0.0024
664.209	-0.0025
664.472	-0.0025
664.735	-0.0017
664.998	-0.0014
665.261	-0.0005
665.524	-0.0011
665.786	0.0001
666.049	-0.001
666.312	-0.0006
666.574	-0.0001
666.837	-0.0009
667.099	0.0001
667.361	-0.0002
667.624	-0.0013
667.886	-0.0021
668.148	-0.0014
668.41	-0.0018
668.672	-0.0016
668.934	-0.0002
669.196	-0.0003
669.458	0.0013
669.72	0.0024
669.982	0.0013
670.243	0.0019
670.505	-0.0003
670.766	0.0004
671.028	0.0002
671.289	-0.0008
671.551	-0.0002
671.812	-0.0016
672.073	-0.0008
672.334	-0.0014
672.596	-0.0011
672.857	-0.0012
673.118	-0.0012
673.379	-0.0021
673.639	-0.0024
673.9	-0.0017
674.161	-0.0024
674.422	-0.0024
674.682	-0.0015
674.943	-0.0011
675.203	-0.0018
675.464	-0.0017
675.724	-0.0028
675.985	-0.0034
676.245	-0.0029
676.505	-0.0027
676.765	-0.0022
677.025	-0.002
677.285	-0.0018
677.545	-0.0002
677.805	-0.0009
678.065	-0.0004
678.325	-0.0005
678.585	-0.0014
678.844	-0.002
679.104	-0.0023
679.363	-0.0033
679.623	-0.0032
679.882	-0.0025
680.142	-0.002
680.401	-0.0027
680.66	-0.0009
680.919	0.0011
681.178	0.0006
681.437	-0.0002
681.696	-0.0006
681.955	-0.0006
682.214	0.0006
682.473	-0.0006
682.732	-0.0018
682.99	-0.0011
683.249	-0.0001
683.508	-0.0017
683.766	-0.0016
684.024	-0.0022
684.283	-0.0008
684.541	-0.0005
684.799	-0.0007
685.058	0.0002
685.316	-0.0012
685.574	-0.0017
685.832	-0.002
686.09	-0.0012
686.348	-0.0028
686.606	-0.0029
686.863	-0.003
687.121	-0.0015
687.379	-0.0007
687.636	-0.0015
687.894	-0.0007
688.151	-0.0009
688.409	-0.0002
688.666	-0.002
688.923	-0.0028
689.181	-0.0025
689.438	-0.0031
689.695	-0.0028
689.952	-0.004
690.209	-0.0037
690.466	-0.0034
690.723	-0.002
690.979	-0.0022
691.236	-0.0023
691.493	-0.0011
691.75	-0.0015
692.006	-0.0022
692.263	-0.0024
692.519	-0.0019
692.775	-0.0013
693.032	-0.0019
693.288	-0.0011
693.544	-0.0006
693.8	-0.0005
694.056	-0.0006
694.313	-0.0011
694.568	-0.0007
694.824	-0.002
695.08	-0.0015
695.336	-0.0025
695.592	-0.0033
695.847	-0.0022
696.103	-0.0016
696.359	-0.0022
696.614	-0.0023
696.869	-0.002
697.125	-0.0033
697.38	-0.0026
697.635	-0.0014
697.891	-0.0012
698.146	-0.0005
698.401	-0.0013
698.656	-0.0023
698.911	-0.0014
699.166	-0.0007
699.42	-0.0008
699.675	-0.0006
699.93	0.0003
700.185	-0.0008
700.439	-0.0005
700.694	-0.0009
700.948	-0.0009
701.203	-0.0018
701.457	-0.0019
701.711	-0.0021
701.965	-0.0022
702.22	-0.0019
702.474	-0.0019
702.728	-0.0015
702.982	-0.0015
703.236	-0.0012
703.49	-0.0014
703.743	-0.0018
703.997	-0.0012
704.251	-0.0019
704.504	-0.0016
704.758	-0.0021
705.012	-0.0012
705.265	-0.0003
705.518	0.0002
705.772	0.0003
706.025	-0.0006
706.278	-0.0016
706.531	-0.002
706.785	-0.0024
707.038	-0.0033
707.291	-0.0019
707.543	-0.0023
707.796	-0.0021
708.049	-0.0022
708.302	-0.0031
708.555	-0.0038
708.807	-0.0017
709.06	-0.0026
709.312	-0.001
709.565	-0.0019
709.817	-0.0026
710.069	-0.0021
710.322	-0.0037
710.574	-0.0044
710.826	-0.0037
711.078	-0.0036
711.33	-0.003
711.582	-0.0038
711.834	-0.0044
712.086	-0.0042
712.338	-0.0054
712.59	-0.0039
712.841	-0.0051
713.093	-0.0047
713.344	-0.0051
713.596	-0.0044
713.847	-0.0031
714.099	-0.0038
714.35	-0.0038
714.601	-0.0041
714.853	-0.0025
715.104	-0.0028
715.355	-0.0028
715.606	-0.0034
715.857	-0.002
716.108	-0.0026
716.359	-0.003
716.609	-0.0037
716.86	-0.0027
717.111	-0.0023
717.361	-0.0019
717.612	-0.0003
717.863	0.0002
718.113	0.0014
718.363	0.0003
718.614	0.0008
718.864	0.0014
719.114	0.0006
719.364	0.001
719.614	0.0004
719.865	0.001
720.114	0.0028
720.364	0.0022
720.614	0.0021
720.864	0.0016
721.114	0.0015
721.364	0.0011
721.613	0.0011
721.863	0.0012
722.112	0.0006
722.362	-0.0007
722.611	-0.0007
722.86	-0.0012
723.11	-0.0006
723.359	-0.0019
723.608	-0.0014
723.857	-0.0012
724.106	0.0002
724.355	0.0001
724.604	-0.0001
724.853	-0.0005
725.102	-0.0029
725.351	-0.0025
725.599	-0.0029
725.848	-0.0031
726.097	-0.0025
726.345	-0.0023
726.594	-0.0039
726.842	-0.0032
727.09	-0.0041
727.339	-0.0051
727.587	-0.0058
727.835	-0.0048
728.083	-0.0045
728.331	-0.0053
728.579	-0.0038
728.827	-0.0034
729.075	-0.0027
729.323	-0.0031
729.571	-0.003
729.818	-0.0028
730.066	-0.003
730.314	-0.0019
730.561	-0.0004
730.809	-0.0002
731.056	-0.0014
731.303	-0.0002
731.551	-0.0009
731.798	-0.0003
732.045	-0.0009
732.292	0.0006
732.539	0.0008
732.786	0.0016
733.033	0.001
733.28	0.0005
733.527	0.0003
733.774	0.0001
734.021	-0.0024
734.267	-0.0024
734.514	-0.0029
734.76	-0.004
735.007	-0.0026
735.253	-0.0034
735.5	-0.0031
735.746	-0.0033
735.992	-0.0029
736.238	-0.0029
736.485	-0.0019
736.731	-0.0016
736.977	-0.0021
737.223	-0.0016
737.469	-0.0021
737.715	-0.0011
737.96	-0.002
738.206	-0.0026
738.452	-0.0021
738.697	-0.0019
738.943	-0.0021
739.189	-0.0022
739.434	-0.0013
739.679	-0.0026
739.925	-0.003
740.17	-0.0042
740.415	-0.0044
740.66	-0.006
740.906	-0.0055
741.151	-0.0046
741.396	-0.0047
741.641	-0.0047
741.886	-0.0045
742.13	-0.0027
742.375	-0.0033
742.62	-0.0032
742.865	-0.0033
743.109	-0.0012
743.354	-0.0005
743.598	-0.0006
743.843	0.0007
744.087	0.0009
744.331	0.0007
744.576	0.0019
744.82	0.0023
745.064	0.0032
745.308	0.0032
745.552	0.0026
745.796	0.0007
746.04	0.0013
746.284	0.0004
746.528	0.0018
746.771	0.0026
747.015	0.0021
747.259	0.0015
747.502	0.0001
747.746	0
747.989	0.0002
748.233	-0.0003
748.476	0.0008
748.719	0.002
748.963	0.0028
749.206	0.0026
749.449	0.0013
749.692	0.0007
749.935	0.0012
750.178	-0.0002
750.421	-0.0005
750.664	0.0003
750.906	0.0011
751.149	0.0015
751.392	0.0011
751.635	-0.0003
751.877	-0.0006
752.12	0.0002
752.362	-0.001
752.604	-0.0001
752.847	0.0019
753.089	0.0017
753.331	0.0019
753.573	0.0009
753.816	-0.0003
754.058	-0.0012
754.3	-0.0022
754.542	-0.0016
754.783	-0.0033
755.025	-0.0025
755.267	-0.0013
755.509	-0.0014
755.75	-0.0016
755.992	-0.0015
756.234	-0.0021
756.475	-0.0031
756.716	-0.0027
756.958	-0.0031
757.199	-0.0021
757.44	-0.0014
757.682	-0.0019
757.923	-0.0008
758.164	-0.0001
758.405	-0.0004
758.646	0.0014
758.887	0.0013
759.128	0.0011
759.369	0.0009
759.609	0.0021
759.85	0.0011
760.091	0.001
760.331	0.0014
760.572	-0.0008
760.812	-0.0004
761.053	-0.0008
761.293	-0.0006
761.533	-0.0008
761.774	0.0009
762.014	0.0007
762.254	0.0004
762.494	-0.0017
762.734	-0.0008
762.974	-0.0018
763.214	-0.0023
763.454	-0.0021
763.694	-0.0027
763.933	-0.0031
764.173	-0.0046
764.413	-0.0056
764.652	-0.0048
764.892	-0.0039
765.131	-0.0041
765.371	-0.0034
765.61	-0.0042
765.849	-0.0036
766.089	-0.0028
766.328	-0.0015
766.567	-0.0018
766.806	-0.0024
767.045	-0.0017
767.284	-0.0023
767.523	-0.0019
767.762	-0.0025
768.001	-0.0021
768.239	-0.0024
768.478	-0.0018
768.717	-0.0016
768.955	-0.0011
769.194	-0.0014
769.432	-0.0001
769.671	0.0006
769.909	0.0012
770.148	0.0007
770.386	0.0016
770.624	0.0018
770.862	0.0017
771.1	0.0021
771.338	0.002
771.576	0.0003
771.814	0.0013
772.052	0.0021
772.29	0.0026
772.528	0.0032
772.765	0.0044
773.003	0.005
773.24	0.0043
773.478	0.0025
773.716	0.0023
773.953	0.0018
774.19	0.0024
774.428	0.0042
774.665	0.0034
774.902	0.0044
775.139	0.0038
775.376	0.0027
775.613	0.0031
775.85	0.0024
776.087	0.0019
776.324	0.001
776.561	0.0014
776.798	0.0011
777.034	0.0007
777.271	0.0014
777.508	0.0022
777.744	0.0027
777.981	0.0034
778.217	0.0029
778.454	0.0017
778.69	0.0014
778.926	-0.0005
779.162	-0.0003
779.399	0.0007
779.635	-0.0002
779.871	-0.0002
780.107	-0.0002
780.343	-0.0008
780.579	-0.0005
780.814	-0
781.05	-0.0004
781.286	-0.0019
781.522	-0.0012
781.757	-0.0008
781.993	-0.0005
782.228	-0.0012
782.464	-0
782.699	-0.0017
782.934	-0.0025
783.17	-0.0021
783.405	-0.0014
783.64	-0.0026
783.875	-0.0024
784.11	-0.003
784.345	-0.0021
784.58	-0.0016
784.815	-0.0013
785.05	-0.0017
785.285	-0.003
785.52	-0.0025
785.754	-0.0038
785.989	-0.0034
786.223	-0.0053
786.458	-0.0055
786.692	-0.0043
786.927	-0.0035
787.161	-0.0024
787.396	-0.0032
787.63	-0.0033
787.864	-0.0044
788.098	-0.0045
788.332	-0.0042
788.566	-0.0038
788.8	-0.0039
789.034	-0.0028
789.268	-0.0024
789.502	-0.002
789.736	-0.002
789.969	-0.002
790.203	-0.0029
790.437	-0.004
790.67	-0.0054
790.904	-0.006
791.137	-0.0064
791.37	-0.006
791.604	-0.0077
791.837	-0.0079
792.07	-0.006
792.303	-0.0066
792.537	-0.0057
792.77	-0.0057
793.003	-0.0055
793.236	-0.0047
793.469	-0.0046
793.701	-0.0037
793.934	-0.0024
794.167	-0.0024
794.4	-0.0018
794.632	-0.0016
794.865	-0.0019
795.097	-0.0013
795.33	-0.0024
795.562	-0.0025
795.795	-0.0012
796.027	-0.0004
796.259	-0.0003
796.491	-0.0001
796.724	-0.0005
796.956	0.0005
797.188	0.0002
797.42	-0.0002
797.652	-0.0006
797.883	0
798.115	0.0016
798.347	0.0006
798.579	0.0026
798.81	0.0027
799.042	0.003
799.274	0.0015
799.505	0.0015
799.737	0.0012
799.968	0
800.199	0
800.431	-0.0006
800.662	-0.0006
800.893	-0.0007
801.124	-0.0016
801.355	-0.0014
801.586	-0.0013
801.817	-0.0026
802.048	-0.003
802.279	-0.0032
802.51	-0.0022
802.741	-0.0015
802.971	0.0003
803.202	0.0001
803.433	0.0008
803.663	-0.0005
803.894	-0.0011
804.124	-0.0027
804.354	-0.0011
804.585	-0.0013
804.815	-0.0009
805.045	-0.001
805.275	0.0009
805.506	-0.054
805.736	0.0856
805.966	0.2442
806.196	0.0463
