Data from 03 0.5 mM K2Cr2O7 0.3 mM BQDS 1 M H2SO4 5 min_Absorbance_0060.txt Node
Date: Mon Dec 13 22:39:45 EST 2021
User: kwabilab-user
Spectrometer: HDX00518
Trigger mode: 0
Integration Time (sec): 5.000000E-2
Scans to average: 50
Nonlinearity correction enabled: false
Boxcar width: 0
Storing dark spectrum: false
XAxis mode: Wavelengths
Number of Pixels in Spectrum: 2068
>>>>>Begin Spectral Data<<<<<
195.27	0.0446
195.642	0.1225
196.014	0.0799
196.386	0.2608
196.758	-0.0071
197.129	-0.0097
197.501	-0.0093
197.872	0.0018
198.244	0.0367
198.615	0.06
198.986	0.0371
199.357	0.0491
199.728	0.033
200.099	0.051
200.47	0.0209
200.841	0.0219
201.212	0.0577
201.582	0.0477
201.953	0.0415
202.323	0.0473
202.694	0.0449
203.064	0.0335
203.434	0.0497
203.804	0.0242
204.174	0.0497
204.544	0.0384
204.914	0.0317
205.284	0.0406
205.653	0.0397
206.023	0.0477
206.393	0.0301
206.762	0.0407
207.131	0.0573
207.501	0.0211
207.87	0.0525
208.239	0.0474
208.608	0.0378
208.977	0.0359
209.346	0.0297
209.715	0.0166
210.083	0.0246
210.452	0.0196
210.82	0.0391
211.189	0.0243
211.557	0.0524
211.925	0.0104
212.294	0.0258
212.662	0.022
213.03	0.0418
213.398	0.0429
213.766	0.0491
214.133	0.0539
214.501	0.051
214.869	0.0492
215.236	0.0411
215.604	0.0366
215.971	0.0442
216.338	0.0684
216.705	0.0616
217.072	0.0684
217.439	0.0447
217.806	0.0546
218.173	0.0784
218.54	0.0643
218.907	0.0815
219.273	0.1075
219.64	0.0711
220.006	0.1057
220.373	0.0985
220.739	0.1261
221.105	0.1594
221.471	0.1507
221.837	0.1503
222.203	0.1697
222.569	0.1979
222.935	0.2137
223.3	0.2262
223.666	0.2596
224.031	0.2794
224.397	0.2765
224.762	0.3081
225.127	0.3521
225.493	0.3693
225.858	0.3923
226.223	0.4065
226.588	0.434
226.952	0.4597
227.317	0.4991
227.682	0.4892
228.046	0.4856
228.411	0.5243
228.775	0.5437
229.14	0.5513
229.504	0.5737
229.868	0.5993
230.232	0.5866
230.596	0.6262
230.96	0.6349
231.324	0.6174
231.688	0.6304
232.052	0.6519
232.415	0.6517
232.779	0.6691
233.142	0.6856
233.505	0.6915
233.869	0.6846
234.232	0.6976
234.595	0.6893
234.958	0.6981
235.321	0.6801
235.684	0.6971
236.047	0.715
236.409	0.6932
236.772	0.6973
237.134	0.6961
237.497	0.698
237.859	0.7196
238.222	0.706
238.584	0.7045
238.946	0.6983
239.308	0.7009
239.67	0.6889
240.032	0.6991
240.393	0.6954
240.755	0.6896
241.117	0.6974
241.478	0.6869
241.84	0.6901
242.201	0.6831
242.562	0.6831
242.924	0.6783
243.285	0.683
243.646	0.6843
244.007	0.6847
244.368	0.6864
244.728	0.6844
245.089	0.6765
245.45	0.677
245.81	0.6728
246.171	0.6732
246.531	0.6693
246.891	0.6733
247.252	0.6727
247.612	0.6682
247.972	0.6793
248.332	0.6694
248.692	0.6677
249.051	0.6696
249.411	0.6773
249.771	0.6636
250.13	0.6714
250.49	0.6686
250.849	0.6637
251.208	0.6677
251.568	0.6694
251.927	0.6694
252.286	0.6718
252.645	0.6713
253.004	0.6629
253.363	0.6633
253.721	0.6725
254.08	0.6694
254.439	0.6594
254.797	0.6591
255.155	0.6588
255.514	0.662
255.872	0.6665
256.23	0.6618
256.588	0.6737
256.946	0.6641
257.304	0.663
257.662	0.6581
258.02	0.6659
258.377	0.6572
258.735	0.6514
259.093	0.6543
259.45	0.6554
259.807	0.659
260.165	0.6482
260.522	0.6522
260.879	0.6485
261.236	0.6568
261.593	0.6496
261.95	0.6464
262.306	0.6447
262.663	0.6337
263.02	0.6429
263.376	0.6427
263.733	0.6463
264.089	0.6325
264.445	0.6244
264.802	0.6319
265.158	0.6253
265.514	0.6234
265.87	0.6174
266.226	0.6205
266.581	0.6252
266.937	0.6128
267.293	0.6106
267.648	0.603
268.004	0.6033
268.359	0.6025
268.714	0.5964
269.07	0.5964
269.425	0.5934
269.78	0.5933
270.135	0.5882
270.49	0.5858
270.844	0.5838
271.199	0.5813
271.554	0.5733
271.908	0.5702
272.263	0.5708
272.617	0.5693
272.972	0.5607
273.326	0.5594
273.68	0.5521
274.034	0.5488
274.388	0.5507
274.742	0.5463
275.096	0.5418
275.45	0.5392
275.803	0.5335
276.157	0.5348
276.51	0.5297
276.864	0.5245
277.217	0.5221
277.571	0.5142
277.924	0.513
278.277	0.5037
278.63	0.4991
278.983	0.4958
279.336	0.4908
279.688	0.4864
280.041	0.4808
280.394	0.4834
280.746	0.4769
281.099	0.472
281.451	0.4631
281.803	0.4582
282.156	0.4553
282.508	0.4535
282.86	0.445
283.212	0.4425
283.564	0.4354
283.916	0.4327
284.267	0.4269
284.619	0.4225
284.971	0.4203
285.322	0.4139
285.673	0.4091
286.025	0.4041
286.376	0.401
286.727	0.3967
287.078	0.393
287.429	0.3877
287.78	0.3845
288.131	0.3749
288.482	0.3733
288.833	0.3685
289.183	0.3618
289.534	0.3589
289.884	0.3576
290.235	0.351
290.585	0.3457
290.935	0.3422
291.285	0.3351
291.635	0.3338
291.985	0.329
292.335	0.3259
292.685	0.3246
293.035	0.3168
293.384	0.3114
293.734	0.3087
294.083	0.3043
294.433	0.2987
294.782	0.2936
295.131	0.2891
295.48	0.2845
295.829	0.2817
296.179	0.2788
296.527	0.2743
296.876	0.2689
297.225	0.2658
297.574	0.2622
297.922	0.26
298.271	0.2546
298.619	0.2532
298.968	0.2471
299.316	0.243
299.664	0.2403
300.012	0.2369
300.36	0.2335
300.708	0.2312
301.056	0.2264
301.404	0.2244
301.752	0.2214
302.099	0.2188
302.447	0.2151
302.794	0.2126
303.142	0.2106
303.489	0.2065
303.836	0.2052
304.183	0.2029
304.531	0.2003
304.878	0.1978
305.224	0.1965
305.571	0.1942
305.918	0.1913
306.265	0.1889
306.611	0.1876
306.958	0.187
307.304	0.1842
307.651	0.1834
307.997	0.1822
308.343	0.1808
308.689	0.1791
309.035	0.1777
309.381	0.1771
309.727	0.1761
310.073	0.1749
310.419	0.1749
310.764	0.174
311.11	0.172
311.455	0.1723
311.801	0.1715
312.146	0.1713
312.491	0.1718
312.837	0.1691
313.182	0.1693
313.527	0.1699
313.872	0.1698
314.216	0.1699
314.561	0.1693
314.906	0.1695
315.251	0.1698
315.595	0.17
315.94	0.1703
316.284	0.171
316.628	0.1719
316.972	0.1717
317.317	0.1728
317.661	0.1728
318.005	0.1738
318.348	0.1745
318.692	0.1749
319.036	0.1761
319.38	0.1768
319.723	0.1774
320.067	0.1793
320.41	0.179
320.754	0.1809
321.097	0.183
321.44	0.1829
321.783	0.1845
322.126	0.186
322.469	0.1871
322.812	0.1876
323.155	0.1898
323.498	0.1912
323.84	0.1928
324.183	0.1947
324.525	0.1962
324.868	0.1984
325.21	0.1988
325.552	0.2008
325.894	0.2025
326.236	0.2034
326.578	0.2048
326.92	0.2071
327.262	0.2087
327.604	0.2107
327.946	0.2122
328.287	0.2143
328.629	0.2157
328.97	0.2174
329.312	0.2193
329.653	0.2207
329.994	0.2226
330.335	0.2243
330.676	0.2267
331.017	0.2283
331.358	0.2303
331.699	0.2327
332.04	0.2343
332.38	0.2358
332.721	0.2372
333.061	0.2402
333.402	0.2416
333.742	0.2438
334.083	0.2453
334.423	0.2467
334.763	0.248
335.103	0.2499
335.443	0.2513
335.783	0.2532
336.123	0.2541
336.462	0.2559
336.802	0.2574
337.141	0.2581
337.481	0.26
337.82	0.2614
338.16	0.263
338.499	0.2656
338.838	0.2655
339.177	0.2683
339.516	0.2695
339.855	0.2709
340.194	0.2722
340.533	0.2735
340.872	0.2742
341.21	0.2749
341.549	0.2768
341.887	0.2771
342.226	0.2783
342.564	0.2794
342.902	0.2797
343.24	0.2807
343.578	0.2816
343.916	0.282
344.254	0.2822
344.592	0.2828
344.93	0.2839
345.268	0.2828
345.605	0.2832
345.943	0.2842
346.28	0.2845
346.618	0.2849
346.955	0.2853
347.292	0.285
347.629	0.2854
347.966	0.2861
348.303	0.2859
348.64	0.2856
348.977	0.2858
349.314	0.287
349.65	0.2867
349.987	0.2864
350.324	0.2866
350.66	0.2863
350.996	0.2852
351.333	0.2854
351.669	0.2845
352.005	0.2843
352.341	0.283
352.677	0.2818
353.013	0.2817
353.349	0.2794
353.685	0.2781
354.02	0.2773
354.356	0.2759
354.691	0.2754
355.027	0.2739
355.362	0.2742
355.697	0.2724
356.033	0.2718
356.368	0.2694
356.703	0.2685
357.038	0.2676
357.373	0.2662
357.707	0.266
358.042	0.265
358.377	0.2635
358.711	0.2628
359.046	0.2613
359.38	0.2597
359.715	0.2587
360.049	0.2573
360.383	0.2569
360.717	0.2549
361.051	0.2534
361.385	0.2518
361.719	0.2497
362.053	0.2485
362.387	0.2459
362.72	0.2439
363.054	0.2418
363.387	0.2399
363.721	0.2381
364.054	0.2356
364.387	0.2342
364.721	0.2316
365.054	0.2295
365.387	0.2279
365.72	0.2257
366.053	0.2241
366.385	0.2225
366.718	0.2206
367.051	0.2191
367.383	0.218
367.716	0.2157
368.048	0.2154
368.381	0.2128
368.713	0.212
369.045	0.2105
369.377	0.2077
369.709	0.2071
370.041	0.2053
370.373	0.2034
370.705	0.2011
371.037	0.2
371.368	0.1978
371.7	0.1969
372.031	0.1948
372.363	0.192
372.694	0.1896
373.025	0.1873
373.356	0.185
373.688	0.183
374.019	0.1803
374.35	0.1788
374.68	0.1763
375.011	0.1738
375.342	0.171
375.673	0.1699
376.003	0.1669
376.334	0.1658
376.664	0.1635
376.995	0.1614
377.325	0.1591
377.655	0.1574
377.985	0.1562
378.315	0.1545
378.645	0.1525
378.975	0.151
379.305	0.1496
379.635	0.1487
379.964	0.1476
380.294	0.1458
380.623	0.1443
380.953	0.1423
381.282	0.1411
381.611	0.1393
381.941	0.1376
382.27	0.1362
382.599	0.1344
382.928	0.1328
383.257	0.1312
383.585	0.1297
383.914	0.128
384.243	0.1259
384.571	0.124
384.9	0.1214
385.228	0.1204
385.557	0.118
385.885	0.116
386.213	0.114
386.541	0.1128
386.869	0.1107
387.197	0.1087
387.525	0.107
387.853	0.1057
388.181	0.1042
388.508	0.1018
388.836	0.1002
389.164	0.0986
389.491	0.0973
389.818	0.0963
390.146	0.0942
390.473	0.0936
390.8	0.0924
391.127	0.0903
391.454	0.0892
391.781	0.0879
392.108	0.0868
392.435	0.0855
392.761	0.0846
393.088	0.0837
393.415	0.0826
393.741	0.0822
394.067	0.0807
394.394	0.0799
394.72	0.0784
395.046	0.0777
395.372	0.0769
395.698	0.076
396.024	0.0749
396.35	0.0739
396.676	0.0727
397.001	0.0717
397.327	0.0704
397.653	0.0695
397.978	0.0684
398.303	0.0671
398.629	0.0654
398.954	0.0649
399.279	0.0641
399.604	0.0634
399.929	0.0628
400.254	0.0619
400.579	0.0608
400.904	0.0606
401.229	0.0598
401.553	0.059
401.878	0.0584
402.202	0.0572
402.527	0.0569
402.851	0.0566
403.175	0.0559
403.5	0.0552
403.824	0.0545
404.148	0.0544
404.472	0.0535
404.796	0.0529
405.119	0.053
405.443	0.0525
405.767	0.0515
406.09	0.0515
406.414	0.0508
406.737	0.0509
407.061	0.0509
407.384	0.0502
407.707	0.0502
408.03	0.049
408.353	0.0502
408.676	0.0491
408.999	0.049
409.322	0.0496
409.645	0.0486
409.968	0.0483
410.29	0.048
410.613	0.0485
410.935	0.0489
411.258	0.0481
411.58	0.0477
411.902	0.0477
412.224	0.0469
412.546	0.0474
412.868	0.0468
413.19	0.0473
413.512	0.0471
413.834	0.0462
414.156	0.0463
414.477	0.0469
414.799	0.0465
415.121	0.0471
415.442	0.0467
415.763	0.0463
416.085	0.0463
416.406	0.0464
416.727	0.0465
417.048	0.0464
417.369	0.0462
417.69	0.0457
418.011	0.0457
418.331	0.0463
418.652	0.0463
418.973	0.0462
419.293	0.0462
419.614	0.0467
419.934	0.0469
420.254	0.0464
420.574	0.0461
420.895	0.0465
421.215	0.0462
421.535	0.0461
421.855	0.0459
422.174	0.0457
422.494	0.046
422.814	0.0457
423.134	0.0459
423.453	0.0458
423.773	0.0461
424.092	0.0453
424.411	0.0459
424.731	0.0461
425.05	0.0459
425.369	0.0462
425.688	0.0461
426.007	0.046
426.326	0.0462
426.644	0.0464
426.963	0.0467
427.282	0.0461
427.6	0.0463
427.919	0.046
428.237	0.046
428.556	0.0467
428.874	0.0465
429.192	0.047
429.51	0.0471
429.828	0.0469
430.146	0.0468
430.464	0.0457
430.782	0.0466
431.1	0.0471
431.418	0.0465
431.735	0.0464
432.053	0.0467
432.37	0.0469
432.688	0.0467
433.005	0.0464
433.322	0.0467
433.639	0.0463
433.957	0.0473
434.274	0.0469
434.591	0.0468
434.907	0.0465
435.224	0.0462
435.541	0.0463
435.858	0.0464
436.174	0.047
436.491	0.0465
436.807	0.0458
437.124	0.0465
437.44	0.0466
437.756	0.046
438.072	0.0464
438.388	0.0469
438.704	0.0457
439.02	0.0458
439.336	0.0455
439.652	0.0459
439.968	0.0453
440.283	0.0454
440.599	0.0454
440.914	0.046
441.23	0.0463
441.545	0.0458
441.86	0.045
442.175	0.0457
442.491	0.0455
442.806	0.045
443.121	0.0451
443.435	0.045
443.75	0.0448
444.065	0.045
444.38	0.0449
444.694	0.0448
445.009	0.0449
445.323	0.0448
445.638	0.0442
445.952	0.0449
446.266	0.0445
446.58	0.0451
446.894	0.0451
447.208	0.0445
447.522	0.0448
447.836	0.0442
448.15	0.0435
448.464	0.044
448.777	0.0439
449.091	0.0428
449.404	0.0439
449.718	0.0429
450.031	0.0431
450.345	0.0433
450.658	0.0436
450.971	0.0429
451.284	0.0429
451.597	0.0424
451.91	0.0424
452.223	0.0426
452.535	0.0416
452.848	0.0424
453.161	0.0415
453.473	0.0423
453.786	0.0415
454.098	0.0414
454.411	0.0415
454.723	0.0402
455.035	0.0403
455.347	0.0399
455.659	0.0407
455.971	0.0407
456.283	0.0401
456.595	0.0406
456.907	0.0406
457.218	0.04
457.53	0.0391
457.841	0.0393
458.153	0.0395
458.464	0.0392
458.776	0.0394
459.087	0.0377
459.398	0.0394
459.709	0.0381
460.02	0.0389
460.331	0.0381
460.642	0.0385
460.953	0.0373
461.263	0.0372
461.574	0.0364
461.885	0.0369
462.195	0.0371
462.506	0.0368
462.816	0.0363
463.126	0.0361
463.437	0.0368
463.747	0.035
464.057	0.0353
464.367	0.0348
464.677	0.0352
464.987	0.0338
465.296	0.0349
465.606	0.034
465.916	0.0345
466.225	0.0349
466.535	0.034
466.844	0.0336
467.154	0.0338
467.463	0.0326
467.772	0.0332
468.081	0.0326
468.39	0.0322
468.699	0.0325
469.008	0.032
469.317	0.0314
469.626	0.0306
469.935	0.0305
470.243	0.0312
470.552	0.0303
470.86	0.0309
471.169	0.0305
471.477	0.0301
471.785	0.0303
472.093	0.0305
472.402	0.0297
472.71	0.0301
473.018	0.0289
473.326	0.028
473.633	0.0294
473.941	0.0287
474.249	0.028
474.556	0.0287
474.864	0.0284
475.171	0.0275
475.479	0.0273
475.786	0.0261
476.094	0.0271
476.401	0.0262
476.708	0.0273
477.015	0.0264
477.322	0.0258
477.629	0.0252
477.936	0.0256
478.242	0.0244
478.549	0.0247
478.856	0.0253
479.162	0.0234
479.469	0.0242
479.775	0.025
480.081	0.0242
480.388	0.0236
480.694	0.0234
481	0.023
481.306	0.023
481.612	0.0229
481.918	0.0227
482.224	0.0224
482.53	0.0221
482.835	0.0227
483.141	0.0218
483.446	0.0217
483.752	0.0212
484.057	0.0203
484.363	0.0204
484.668	0.0207
484.973	0.0196
485.278	0.0202
485.583	0.0196
485.888	0.0198
486.193	0.0189
486.498	0.0191
486.803	0.0187
487.107	0.0184
487.412	0.0187
487.717	0.0184
488.021	0.0182
488.325	0.0193
488.63	0.0184
488.934	0.0175
489.238	0.0179
489.542	0.0167
489.846	0.0176
490.15	0.0175
490.454	0.0164
490.758	0.0168
491.062	0.0161
491.366	0.016
491.669	0.0155
491.973	0.0166
492.276	0.0147
492.58	0.0153
492.883	0.0145
493.186	0.0143
493.489	0.0144
493.792	0.0134
494.096	0.0142
494.399	0.0138
494.701	0.0144
495.004	0.0133
495.307	0.0134
495.61	0.0126
495.912	0.0134
496.215	0.0121
496.517	0.0119
496.82	0.0125
497.122	0.0116
497.424	0.0118
497.727	0.012
498.029	0.0108
498.331	0.0119
498.633	0.0116
498.935	0.0116
499.237	0.0107
499.538	0.0102
499.84	0.0107
500.142	0.0101
500.443	0.0104
500.745	0.0103
501.046	0.009
501.348	0.0101
501.649	0.0092
501.95	0.0085
502.251	0.0083
502.552	0.0088
502.853	0.0091
503.154	0.0075
503.455	0.0083
503.756	0.0079
504.057	0.0087
504.357	0.0065
504.658	0.0087
504.958	0.0082
505.259	0.0076
505.559	0.0071
505.859	0.0069
506.16	0.0072
506.46	0.0073
506.76	0.0076
507.06	0.0072
507.36	0.0074
507.66	0.0069
507.96	0.0067
508.259	0.0062
508.559	0.0074
508.859	0.0062
509.158	0.0063
509.457	0.0048
509.757	0.0053
510.056	0.0068
510.355	0.0057
510.655	0.0054
510.954	0.0052
511.253	0.0054
511.552	0.0064
511.851	0.005
512.149	0.0036
512.448	0.0046
512.747	0.0046
513.045	0.0039
513.344	0.0039
513.642	0.0037
513.941	0.0043
514.239	0.0043
514.537	0.004
514.836	0.0052
515.134	0.0024
515.432	0.005
515.73	0.0034
516.028	0.0036
516.326	0.0032
516.623	0.0039
516.921	0.0017
517.219	0.0033
517.516	0.0033
517.814	0.0027
518.111	0.0034
518.409	0.0023
518.706	0.0024
519.003	0.003
519.3	0.0025
519.597	0.0016
519.894	0.0028
520.191	0.0026
520.488	0.0023
520.785	0.0015
521.082	0.0019
521.378	0.0012
521.675	0.0014
521.971	0.001
522.268	0.0023
522.564	0.0011
522.861	0.0024
523.157	0.0023
523.453	0.0023
523.749	0.0014
524.045	0.0009
524.341	0.0024
524.637	0.0012
524.933	0.0001
525.229	0.0004
525.524	-0.0003
525.82	0.0001
526.115	0.0004
526.411	0.0006
526.706	0.0009
527.002	0.0018
527.297	0.0001
527.592	0.0008
527.887	0.0013
528.182	0.0015
528.477	0.0016
528.772	0.0011
529.067	0.0006
529.362	0.0013
529.657	0.0006
529.951	0.0005
530.246	0.0007
530.54	0.0018
530.835	-0.0006
531.129	0.0005
531.423	0.0001
531.718	-0.0003
532.012	0.0004
532.306	0.0008
532.6	-0.0007
532.894	-0.0003
533.188	0.0003
533.482	0.0009
533.775	0.0002
534.069	-0.0003
534.363	-0.002
534.656	-0.0019
534.95	0.0011
535.243	-0.0004
535.536	-0.0002
535.83	-0.0017
536.123	-0.0012
536.416	-0.0003
536.709	0.0008
537.002	-0.0004
537.295	-0.0007
537.588	-0.0006
537.881	-0.0012
538.173	-0.0012
538.466	-0.0008
538.759	-0.0014
539.051	0.0003
539.344	-0.0007
539.636	-0.0003
539.928	0
540.22	-0.0002
540.513	0.0003
540.805	0
541.097	-0.001
541.389	-0.0004
541.681	-0.0003
541.972	0.0003
542.264	0.0005
542.556	-0.0001
542.847	0.0017
543.139	0.001
543.431	-0.0001
543.722	0.0009
544.013	0.0005
544.305	0.0001
544.596	-0.0006
544.887	0.0011
545.178	0.0001
545.469	-0.0012
545.76	0.0002
546.051	0.0019
546.342	0
546.632	-0.0008
546.923	-0.0009
547.214	-0.0012
547.504	-0.0017
547.795	-0.001
548.085	-0.002
548.375	-0.0006
548.666	-0.0014
548.956	-0.0009
549.246	-0
549.536	-0.0009
549.826	-0.0015
550.116	-0.0006
550.406	-0.0013
550.695	-0.0024
550.985	0.0002
551.275	-0.001
551.564	-0.0009
551.854	-0.0002
552.143	-0.0018
552.433	-0.0014
552.722	-0.0021
553.011	-0.0006
553.3	0.0003
553.589	0.0001
553.879	-0.0011
554.167	-0.0007
554.456	0.0004
554.745	0.0004
555.034	-0.0004
555.323	0.0008
555.611	-0.0012
555.9	0.0002
556.188	-0.0016
556.477	0.0002
556.765	-0.0022
557.053	-0.0013
557.342	0.0002
557.63	-0.0011
557.918	0.0006
558.206	0.0005
558.494	0.0002
558.782	-0.0003
559.069	0.0017
559.357	0.0001
559.645	0.0003
559.932	-0.0004
560.22	-0.0009
560.507	-0.0012
560.795	-0.0024
561.082	-0.0019
561.37	0
561.657	-0.0013
561.944	-0.0013
562.231	-0.0008
562.518	0.0001
562.805	-0.0004
563.092	-0.0003
563.379	0.0006
563.665	0.0004
563.952	-0.0003
564.239	0.0001
564.525	-0
564.811	0.0012
565.098	0
565.384	-0.0006
565.67	-0.0002
565.957	0.0004
566.243	0.0013
566.529	0.0003
566.815	-0.001
567.101	0.0006
567.387	-0
567.672	0.0004
567.958	0.0012
568.244	-0
568.529	0.0006
568.815	0.0002
569.1	-0.0004
569.386	-0.001
569.671	0.0007
569.956	-0.0005
570.242	0.0008
570.527	-0.0008
570.812	0.0006
571.097	-0
571.382	-0.0009
571.666	0.0009
571.951	0.0001
572.236	-0.0001
572.521	0.0005
572.805	-0
573.09	-0.0003
573.374	-0.0008
573.659	-0
573.943	-0.0007
574.227	-0.0004
574.511	-0.0003
574.795	-0.0008
575.079	-0.0005
575.363	-0.0011
575.647	-0.0006
575.931	-0.0002
576.215	-0.0014
576.499	-0.0007
576.782	-0.0012
577.066	-0.0006
577.349	0.0004
577.633	-0.0002
577.916	-0.0007
578.2	-0.0006
578.483	-0.0011
578.766	-0.0006
579.049	-0.0001
579.332	0.0004
579.615	0.0002
579.898	0
580.181	0.0003
580.464	0.0012
580.746	0.0002
581.029	0
581.312	-0.0004
581.594	-0.0008
581.877	-0.001
582.159	-0.0012
582.441	-0.0006
582.724	-0.0011
583.006	0
583.288	0.0007
583.57	0.0002
583.852	0.0004
584.134	0.0006
584.416	0.0004
584.697	0.0005
584.979	-0.0004
585.261	-0.0015
585.542	-0.0009
585.824	-0.0007
586.105	-0.0013
586.387	-0.0014
586.668	-0.0002
586.949	-0.0006
587.231	0.0003
587.512	0.0005
587.793	0.0002
588.074	-0.0003
588.355	-0.0002
588.636	-0.0002
588.916	-0.0013
589.197	-0.0004
589.478	-0.0004
589.758	-0.0007
590.039	0.0001
590.319	0.0002
590.6	0.0003
590.88	0.0011
591.16	0.0008
591.441	0.001
591.721	0.0001
592.001	-0.0009
592.281	-0.0008
592.561	-0.0002
592.841	-0.0002
593.12	-0.0025
593.4	-0.0013
593.68	-0.0014
593.959	-0.0015
594.239	-0.0014
594.518	-0.0005
594.798	-0.0005
595.077	-0.0008
595.356	-0.0005
595.636	-0.0011
595.915	-0.0003
596.194	-0.0003
596.473	-0.0001
596.752	-0.0002
597.031	0.0006
597.31	0.0003
597.588	-0.0003
597.867	-0.0003
598.146	-0.0007
598.424	0.0001
598.703	0.0001
598.981	-0.001
599.259	-0.0011
599.538	-0.0007
599.816	-0.0001
600.094	-0.0007
600.372	-0.002
600.65	-0.0012
600.928	-0.0011
601.206	-0.0003
601.484	-0.0002
601.762	0.0001
602.04	-0.0002
602.317	-0.0005
602.595	-0
602.872	-0.0001
603.15	0.0009
603.427	-0.0013
603.704	-0.001
603.982	-0.0004
604.259	-0
604.536	-0.0001
604.813	-0.0003
605.09	-0.0007
605.367	-0.0012
605.644	-0.0016
605.921	-0.0006
606.197	-0.0013
606.474	-0.0001
606.751	-0.0005
607.027	-0.0006
607.304	-0.0003
607.58	-0.0003
607.856	-0.0005
608.133	-0.0012
608.409	-0.0002
608.685	-0.0005
608.961	-0.0008
609.237	-0.0005
609.513	-0.0003
609.789	-0.0009
610.065	0.0001
610.341	-0.0012
610.616	-0.0005
610.892	0.001
611.167	0.001
611.443	0.0006
611.718	0.0001
611.994	-0.0005
612.269	-0
612.544	0.0003
612.819	-0.0007
613.095	-0.0005
613.37	-0.0005
613.645	-0.0012
613.919	-0.0006
614.194	-0.0001
614.469	0.001
614.744	0.0004
615.019	-0.0007
615.293	-0.0008
615.568	-0.0006
615.842	0
616.116	0.0005
616.391	0.0005
616.665	0.0009
616.939	0.0003
617.213	0.0011
617.488	0.0006
617.762	-0.0008
618.035	-0
618.309	-0.0011
618.583	0.0002
618.857	0.001
619.131	0.0005
619.404	0.0008
619.678	0.0008
619.951	-0
620.225	-0.0007
620.498	-0.0006
620.771	-0.0002
621.045	-0.0016
621.318	-0.001
621.591	-0.0022
621.864	-0.0014
622.137	-0.0019
622.41	-0.002
622.683	-0.0011
622.956	-0.0006
623.228	-0.0005
623.501	0
623.774	-0.0004
624.046	-0.0012
624.319	-0.0011
624.591	-0.0024
624.863	-0.0014
625.136	-0.0005
625.408	0.0006
625.68	-0.0006
625.952	0.001
626.224	0.0006
626.496	0.0002
626.768	-0.0003
627.04	-0.0012
627.311	-0.0004
627.583	-0.001
627.855	0.0002
628.126	0.0004
628.398	0.002
628.669	0.0021
628.941	0.0015
629.212	0.0006
629.483	0.0006
629.755	0.0007
630.026	0.0005
630.297	0.0008
630.568	0.0002
630.839	0.0002
631.11	0.0001
631.38	0.0001
631.651	0.0012
631.922	0.0009
632.192	-0
632.463	0.0001
632.733	-0.001
633.004	-0.0008
633.274	-0.0003
633.545	0.0001
633.815	0.0006
634.085	-0.0018
634.355	-0.0023
634.625	-0.0019
634.895	-0.0007
635.165	-0.0009
635.435	-0.0025
635.705	-0.0011
635.974	-0.0021
636.244	-0.0023
636.514	-0.0015
636.783	-0.001
637.053	-0.0008
637.322	-0.0005
637.591	0.0002
637.861	-0.0023
638.13	-0.0018
638.399	-0.0016
638.668	-0.0028
638.937	-0.0026
639.206	-0.0033
639.475	-0.0029
639.744	-0.0031
640.013	-0.0028
640.281	-0.0019
640.55	-0.0021
640.819	-0.0017
641.087	-0.002
641.356	-0.0017
641.624	0
641.892	0.0005
642.161	0.0001
642.429	-0.0012
642.697	-0.0011
642.965	-0.0012
643.233	-0.002
643.501	-0.0014
643.769	-0.0001
644.037	-0.0003
644.305	-0.0013
644.572	-0.0011
644.84	-0.0009
645.108	-0.0027
645.375	-0.0021
645.643	-0.0019
645.91	0.0002
646.177	0.001
646.445	0.001
646.712	0.0025
646.979	0.0024
647.246	0.003
647.513	0.0027
647.78	0.0012
648.047	0.0005
648.314	-0.0005
648.58	-0.0007
648.847	-0.0007
649.114	0.0002
649.38	0.0001
649.647	0.0002
649.913	-0.0006
650.18	-0.0006
650.446	0
650.712	-0.0016
650.978	-0.0011
651.245	-0.0017
651.511	-0.0008
651.777	-0.0012
652.043	-0.0011
652.309	-0.0002
652.574	0.002
652.84	0.0009
653.106	0.0015
653.371	0.0012
653.637	0.0012
653.903	0.0017
654.168	0.0019
654.433	0.0023
654.699	0.002
654.964	0.0036
655.229	0.0015
655.494	0.0004
655.759	-0.0023
656.024	0.0001
656.289	-0
656.554	-0.0001
656.819	-0.001
657.084	0.0007
657.349	0.0009
657.613	0.0003
657.878	-0
658.142	-0.0006
658.407	-0.0009
658.671	0.001
658.936	0.0002
659.2	0.0003
659.464	0.0005
659.728	0.0008
659.992	0.0001
660.256	0.0005
660.52	-0.0003
660.784	0
661.048	0.0001
661.312	0.0003
661.575	0.0007
661.839	0.0008
662.103	0.0001
662.366	-0.0005
662.63	-0.0011
662.893	-0.0011
663.156	-0.0016
663.42	-0.0014
663.683	-0.002
663.946	-0.0032
664.209	-0.0028
664.472	-0.0025
664.735	-0.0016
664.998	-0.0014
665.261	-0.0008
665.524	-0.001
665.786	-0.001
666.049	-0.0003
666.312	-0.0007
666.574	-0.0009
666.837	-0.0016
667.099	-0.0005
667.361	-0.0012
667.624	-0.0018
667.886	-0.0021
668.148	-0.0024
668.41	-0.0011
668.672	-0.0013
668.934	0.0007
669.196	0.0009
669.458	0.0013
669.72	0.0013
669.982	0.0006
670.243	0.0016
670.505	-0.0003
670.766	-0
671.028	-0.0002
671.289	-0.0021
671.551	-0.0017
671.812	-0.0022
672.073	-0.0007
672.334	-0.0013
672.596	-0.002
672.857	-0.0014
673.118	-0.0014
673.379	-0.0027
673.639	-0.0028
673.9	-0.0025
674.161	-0.0022
674.422	-0.0033
674.682	-0.0024
674.943	-0.0021
675.203	-0.0011
675.464	-0.0017
675.724	-0.0041
675.985	-0.004
676.245	-0.0032
676.505	-0.0027
676.765	-0.0031
677.025	-0.0024
677.285	-0.0026
677.545	-0.0015
677.805	-0.001
678.065	-0.0013
678.325	-0.001
678.585	-0.0016
678.844	-0.0032
679.104	-0.0034
679.363	-0.0045
679.623	-0.0037
679.882	-0.0037
680.142	-0.0027
680.401	-0.0023
680.66	-0.0011
680.919	0.0001
681.178	-0.0007
681.437	-0.0005
681.696	-0.0014
681.955	-0.0012
682.214	-0
682.473	-0.0014
682.732	-0.0012
682.99	-0.0021
683.249	-0.0007
683.508	-0.0018
683.766	-0.0018
684.024	-0.0015
684.283	-0.0009
684.541	-0.0006
684.799	-0.0013
685.058	-0.001
685.316	-0.0021
685.574	-0.0014
685.832	-0.0019
686.09	-0.002
686.348	-0.003
686.606	-0.0028
686.863	-0.0038
687.121	-0.0025
687.379	-0.0017
687.636	-0.0017
687.894	-0.0015
688.151	-0.0014
688.409	-0.0008
688.666	-0.0021
688.923	-0.0039
689.181	-0.0021
689.438	-0.0036
689.695	-0.0034
689.952	-0.0042
690.209	-0.0039
690.466	-0.0043
690.723	-0.0027
690.979	-0.0025
691.236	-0.0032
691.493	-0.0024
691.75	-0.0019
692.006	-0.002
692.263	-0.0023
692.519	-0.0027
692.775	-0.0014
693.032	-0.0018
693.288	-0.0011
693.544	-0.0007
693.8	-0.0012
694.056	-0.0019
694.313	-0.001
694.568	-0.0005
694.824	-0.0016
695.08	-0.0019
695.336	-0.0029
695.592	-0.0031
695.847	-0.002
696.103	-0.0024
696.359	-0.0022
696.614	-0.0031
696.869	-0.0027
697.125	-0.0038
697.38	-0.0027
697.635	-0.0014
697.891	-0.0007
698.146	-0.0015
698.401	-0.0019
698.656	-0.0025
698.911	-0.0018
699.166	-0.0013
699.42	-0.0007
699.675	-0.0004
699.93	-0.0002
700.185	-0.0011
700.439	-0.001
700.694	-0.0013
700.948	-0.0016
701.203	-0.0018
701.457	-0.0018
701.711	-0.0028
701.965	-0.0027
702.22	-0.0021
702.474	-0.0022
702.728	-0.0019
702.982	-0.0018
703.236	-0.0014
703.49	-0.0015
703.743	-0.0015
703.997	-0.002
704.251	-0.003
704.504	-0.0019
704.758	-0.0029
705.012	-0.0023
705.265	-0.002
705.518	-0.0004
705.772	-0.001
706.025	-0.0012
706.278	-0.0018
706.531	-0.0029
706.785	-0.0024
707.038	-0.0039
707.291	-0.0031
707.543	-0.0028
707.796	-0.0029
708.049	-0.0029
708.302	-0.0037
708.555	-0.0032
708.807	-0.002
709.06	-0.0032
709.312	-0.0021
709.565	-0.0015
709.817	-0.0036
710.069	-0.0031
710.322	-0.0035
710.574	-0.0041
710.826	-0.0037
711.078	-0.0038
711.33	-0.003
711.582	-0.0045
711.834	-0.0044
712.086	-0.0046
712.338	-0.0055
712.59	-0.0053
712.841	-0.0062
713.093	-0.0055
713.344	-0.0057
713.596	-0.0051
713.847	-0.004
714.099	-0.0042
714.35	-0.0049
714.601	-0.0041
714.853	-0.0036
715.104	-0.0038
715.355	-0.0032
715.606	-0.0033
715.857	-0.0029
716.108	-0.0035
716.359	-0.0034
716.609	-0.0041
716.86	-0.0032
717.111	-0.0024
717.361	-0.0024
717.612	-0.0006
717.863	0
718.113	0.0007
718.363	-0.0005
718.614	0.001
718.864	0.0011
719.114	0.0001
719.364	0.0004
719.614	0.0003
719.865	0.0011
720.114	0.002
720.364	0.0016
720.614	0.0023
720.864	0.0017
721.114	0.0011
721.364	0.0021
721.613	0.0014
721.863	0.0004
722.112	-0.0004
722.362	-0.0006
722.611	-0.0015
722.86	-0.0021
723.11	-0.0018
723.359	-0.0018
723.608	-0.0018
723.857	-0.0016
724.106	-0.0008
724.355	-0.0008
724.604	-0.0013
724.853	-0.0012
725.102	-0.003
725.351	-0.0028
725.599	-0.0022
725.848	-0.0037
726.097	-0.0018
726.345	-0.0028
726.594	-0.004
726.842	-0.0034
727.09	-0.0041
727.339	-0.0054
727.587	-0.005
727.835	-0.0051
728.083	-0.0044
728.331	-0.0052
728.579	-0.0034
728.827	-0.003
729.075	-0.0031
729.323	-0.0033
729.571	-0.0033
729.818	-0.003
730.066	-0.0034
730.314	-0.0022
730.561	-0.0009
730.809	-0.0011
731.056	-0.0012
731.303	-0.0004
731.551	-0.001
731.798	-0.0012
732.045	-0.0017
732.292	0
732.539	0.0007
732.786	0.0009
733.033	0.0009
733.28	0.0006
733.527	0.0003
733.774	-0.0001
734.021	-0.0018
734.267	-0.0027
734.514	-0.0028
734.76	-0.0037
735.007	-0.0032
735.253	-0.0037
735.5	-0.0035
735.746	-0.0033
735.992	-0.0024
736.238	-0.0032
736.485	-0.002
736.731	-0.0021
736.977	-0.0031
737.223	-0.0022
737.469	-0.0029
737.715	-0.0019
737.96	-0.0023
738.206	-0.0028
738.452	-0.0027
738.697	-0.0025
738.943	-0.0015
739.189	-0.0021
739.434	-0.0015
739.679	-0.0032
739.925	-0.0036
740.17	-0.0048
740.415	-0.0051
740.66	-0.0058
740.906	-0.0062
741.151	-0.0056
741.396	-0.0057
741.641	-0.0067
741.886	-0.006
742.13	-0.0036
742.375	-0.0029
742.62	-0.0036
742.865	-0.0039
743.109	-0.0021
743.354	-0.0011
743.598	-0.0006
743.843	-0.0001
744.087	0.0007
744.331	0.0008
744.576	0.0017
744.82	0.0027
745.064	0.0024
745.308	0.0024
745.552	0.0019
745.796	0.001
746.04	0.0008
746.284	0.0002
746.528	0.0011
746.771	0.0028
747.015	0.0027
747.259	0.0007
747.502	0.0001
747.746	-0.0008
747.989	0.0004
748.233	-0.0008
748.476	0.001
748.719	0.0017
748.963	0.0021
749.206	0.0023
749.449	0.0008
749.692	0.0006
749.935	0.0011
750.178	-0.0009
750.421	-0.0009
750.664	-0.0011
750.906	0
751.149	0.0002
751.392	-0.0007
751.635	-0.0014
751.877	-0.001
752.12	-0.0012
752.362	-0.0012
752.604	-0.0011
752.847	0.0008
753.089	0.0009
753.331	0.0008
753.573	0.0005
753.816	-0.001
754.058	-0.0017
754.3	-0.0034
754.542	-0.0025
754.783	-0.0022
755.025	-0.0026
755.267	-0.0008
755.509	-0.0017
755.75	-0.0022
755.992	-0.0016
756.234	-0.0026
756.475	-0.0024
756.716	-0.0032
756.958	-0.0025
757.199	-0.0023
757.44	-0.0021
757.682	-0.0018
757.923	-0.0012
758.164	-0.0006
758.405	-0.001
758.646	0.0005
758.887	0.0001
759.128	0.0005
759.369	0.0002
759.609	0.0012
759.85	0.0008
760.091	0.0012
760.331	0.001
760.572	-0.0011
760.812	-0.0009
761.053	-0.0008
761.293	-0.0009
761.533	-0.0009
761.774	0.0009
762.014	0.0004
762.254	-0.0003
762.494	-0.0016
762.734	-0.0012
762.974	-0.0023
763.214	-0.0023
763.454	-0.0024
763.694	-0.0023
763.933	-0.0026
764.173	-0.0054
764.413	-0.0054
764.652	-0.0047
764.892	-0.0042
765.131	-0.0039
765.371	-0.004
765.61	-0.0041
765.849	-0.0035
766.089	-0.0031
766.328	-0.0022
766.567	-0.0026
766.806	-0.0027
767.045	-0.0017
767.284	-0.002
767.523	-0.0023
767.762	-0.0029
768.001	-0.0021
768.239	-0.0024
768.478	-0.0013
768.717	-0.001
768.955	-0.0011
769.194	-0.0013
769.432	0.0003
769.671	0.0011
769.909	0.0008
770.148	0.0003
770.386	0.0007
770.624	0.001
770.862	0.0015
771.1	0.0017
771.338	0.0011
771.576	0.0003
771.814	0.0009
772.052	0.0016
772.29	0.0026
772.528	0.0032
772.765	0.0037
773.003	0.0035
773.24	0.0041
773.478	0.0022
773.716	0.0018
773.953	0.0009
774.19	0.0011
774.428	0.0022
774.665	0.0026
774.902	0.0032
775.139	0.0032
775.376	0.0028
775.613	0.0021
775.85	0.0019
776.087	0.0016
776.324	0.0012
776.561	0.0009
776.798	0.0002
777.034	0.0002
777.271	0.0009
777.508	0.0015
777.744	0.0019
777.981	0.0024
778.217	0.0031
778.454	0.0014
778.69	0.0001
778.926	-0.0011
779.162	-0.0012
779.399	-0.0009
779.635	-0.0016
779.871	-0.0014
780.107	-0.0013
780.343	-0.0024
780.579	-0.0018
780.814	-0.002
781.05	-0.0015
781.286	-0.0025
781.522	-0.0014
781.757	-0.0015
781.993	-0.0011
782.228	-0.0031
782.464	-0.0024
782.699	-0.0025
782.934	-0.0027
783.17	-0.0032
783.405	-0.0028
783.64	-0.0033
783.875	-0.0044
784.11	-0.0042
784.345	-0.0026
784.58	-0.0021
784.815	-0.0019
785.05	-0.0034
785.285	-0.0035
785.52	-0.0038
785.754	-0.0049
785.989	-0.0056
786.223	-0.0061
786.458	-0.0056
786.692	-0.0053
786.927	-0.004
787.161	-0.0042
787.396	-0.0041
787.63	-0.0039
787.864	-0.0057
788.098	-0.0057
788.332	-0.0052
788.566	-0.0039
788.8	-0.004
789.034	-0.0032
789.268	-0.0033
789.502	-0.003
789.736	-0.0027
789.969	-0.0031
790.203	-0.0038
790.437	-0.005
790.67	-0.0058
790.904	-0.0067
791.137	-0.0068
791.37	-0.0067
791.604	-0.0083
791.837	-0.0078
792.07	-0.0067
792.303	-0.0071
792.537	-0.0062
792.77	-0.0063
793.003	-0.006
793.236	-0.0056
793.469	-0.0059
793.701	-0.0043
793.934	-0.0038
794.167	-0.0027
794.4	-0.0028
794.632	-0.0024
794.865	-0.0018
795.097	-0.0016
795.33	-0.0029
795.562	-0.0019
795.795	-0.0012
796.027	-0.0006
796.259	-0.0004
796.491	-0.0001
796.724	-0.0004
796.956	0.0007
797.188	-0.0002
797.42	-0.0009
797.652	0.0001
797.883	-0.0004
798.115	0.0002
798.347	-0.0004
798.579	0.0019
798.81	0.001
799.042	0.0021
799.274	0.001
799.505	0.0007
799.737	0.0004
799.968	-0.0008
800.199	-0.0012
800.431	-0.0018
800.662	-0.0016
800.893	-0.002
801.124	-0.0027
801.355	-0.003
801.586	-0.0022
801.817	-0.0029
802.048	-0.0045
802.279	-0.0039
802.51	-0.0028
802.741	-0.0012
802.971	-0.0006
803.202	0.0002
803.433	0.0001
803.663	-0.0009
803.894	-0.0009
804.124	-0.0023
804.354	-0.0014
804.585	-0.002
804.815	-0.0005
805.045	-0.0015
805.275	-0.0014
805.506	-0.0417
805.736	0.0692
805.966	0.0365
806.196	0.1233
