Data from 03 0.5 mM K2Cr2O7 0.3 mM BQDS 1 M H2SO4 5 min_Absorbance_0028.txt Node
Date: Mon Dec 13 19:59:45 EST 2021
User: kwabilab-user
Spectrometer: HDX00518
Trigger mode: 0
Integration Time (sec): 5.000000E-2
Scans to average: 50
Nonlinearity correction enabled: false
Boxcar width: 0
Storing dark spectrum: false
XAxis mode: Wavelengths
Number of Pixels in Spectrum: 2068
>>>>>Begin Spectral Data<<<<<
195.27	0.0211
195.642	0.0527
196.014	-0.0254
196.386	0.0684
196.758	0.0375
197.129	0.0142
197.501	0.0129
197.872	0.0262
198.244	0.0441
198.615	0.0594
198.986	0.0554
199.357	0.0619
199.728	0.0622
200.099	0.0675
200.47	0.0242
200.841	0.0444
201.212	0.0737
201.582	0.0615
201.953	0.042
202.323	0.0628
202.694	0.0637
203.064	0.0464
203.434	0.0695
203.804	0.049
204.174	0.081
204.544	0.0572
204.914	0.0525
205.284	0.0566
205.653	0.0489
206.023	0.0653
206.393	0.0246
206.762	0.0632
207.131	0.0685
207.501	0.0608
207.87	0.0853
208.239	0.0805
208.608	0.0517
208.977	0.0504
209.346	0.0534
209.715	0.0506
210.083	0.0364
210.452	0.0563
210.82	0.0787
211.189	0.0411
211.557	0.0837
211.925	0.0324
212.294	0.0624
212.662	0.0557
213.03	0.0689
213.398	0.088
213.766	0.0663
214.133	0.0654
214.501	0.0964
214.869	0.0771
215.236	0.0772
215.604	0.0632
215.971	0.0727
216.338	0.1013
216.705	0.1005
217.072	0.0925
217.439	0.0934
217.806	0.0911
218.173	0.0983
218.54	0.0706
218.907	0.0889
219.273	0.109
219.64	0.1086
220.006	0.1103
220.373	0.1202
220.739	0.1418
221.105	0.1639
221.471	0.1761
221.837	0.1772
222.203	0.2034
222.569	0.2092
222.935	0.2674
223.3	0.2383
223.666	0.2871
224.031	0.3127
224.397	0.3112
224.762	0.3397
225.127	0.3649
225.493	0.3855
225.858	0.3977
226.223	0.4403
226.588	0.4343
226.952	0.4663
227.317	0.5011
227.682	0.5162
228.046	0.5141
228.411	0.5627
228.775	0.5645
229.14	0.5694
229.504	0.5941
229.868	0.6267
230.232	0.6362
230.596	0.6357
230.96	0.6621
231.324	0.6528
231.688	0.6611
232.052	0.7012
232.415	0.7061
232.779	0.6984
233.142	0.7178
233.505	0.7219
233.869	0.7325
234.232	0.7365
234.595	0.7304
234.958	0.7366
235.321	0.7366
235.684	0.7398
236.047	0.7525
236.409	0.7304
236.772	0.7329
237.134	0.7491
237.497	0.739
237.859	0.7496
238.222	0.7465
238.584	0.7442
238.946	0.7391
239.308	0.7356
239.67	0.7385
240.032	0.7365
240.393	0.7565
240.755	0.7342
241.117	0.7425
241.478	0.7426
241.84	0.7411
242.201	0.7293
242.562	0.7278
242.924	0.7233
243.285	0.7258
243.646	0.7355
244.007	0.7211
244.368	0.7322
244.728	0.7322
245.089	0.7302
245.45	0.728
245.81	0.7205
246.171	0.7394
246.531	0.7206
246.891	0.7162
247.252	0.7151
247.612	0.7224
247.972	0.723
248.332	0.7282
248.692	0.7298
249.051	0.7334
249.411	0.7298
249.771	0.7272
250.13	0.7149
250.49	0.7253
250.849	0.7228
251.208	0.7282
251.568	0.7264
251.927	0.7197
252.286	0.7273
252.645	0.7268
253.004	0.7218
253.363	0.7257
253.721	0.7233
254.08	0.7235
254.439	0.7219
254.797	0.723
255.155	0.716
255.514	0.721
255.872	0.7261
256.23	0.7142
256.588	0.7259
256.946	0.7238
257.304	0.7184
257.662	0.7274
258.02	0.7157
258.377	0.7211
258.735	0.7182
259.093	0.713
259.45	0.7219
259.807	0.7164
260.165	0.7113
260.522	0.7142
260.879	0.7106
261.236	0.7111
261.593	0.7052
261.95	0.7023
262.306	0.7032
262.663	0.7042
263.02	0.7008
263.376	0.6981
263.733	0.7013
264.089	0.6963
264.445	0.6936
264.802	0.696
265.158	0.6922
265.514	0.6932
265.87	0.6922
266.226	0.6842
266.581	0.6891
266.937	0.681
267.293	0.6744
267.648	0.6744
268.004	0.6749
268.359	0.6703
268.714	0.6697
269.07	0.6643
269.425	0.6584
269.78	0.6586
270.135	0.6563
270.49	0.6579
270.844	0.6488
271.199	0.6531
271.554	0.6443
271.908	0.639
272.263	0.6433
272.617	0.6308
272.972	0.6296
273.326	0.627
273.68	0.6219
274.034	0.6195
274.388	0.6154
274.742	0.6106
275.096	0.6142
275.45	0.6057
275.803	0.5988
276.157	0.5982
276.51	0.5928
276.864	0.5871
277.217	0.5838
277.571	0.5838
277.924	0.5752
278.277	0.5733
278.63	0.5678
278.983	0.5607
279.336	0.5607
279.688	0.5526
280.041	0.5508
280.394	0.543
280.746	0.5383
281.099	0.5307
281.451	0.5267
281.803	0.5216
282.156	0.5153
282.508	0.5161
282.86	0.5068
283.212	0.5003
283.564	0.4996
283.916	0.4966
284.267	0.4876
284.619	0.4791
284.971	0.4773
285.322	0.4746
285.673	0.466
286.025	0.4623
286.376	0.4585
286.727	0.4534
287.078	0.4505
287.429	0.4442
287.78	0.4368
288.131	0.4349
288.482	0.4264
288.833	0.4211
289.183	0.4147
289.534	0.4098
289.884	0.4085
290.235	0.4006
290.585	0.3975
290.935	0.3914
291.285	0.3849
291.635	0.3824
291.985	0.3782
292.335	0.3724
292.685	0.367
293.035	0.3644
293.384	0.3574
293.734	0.3542
294.083	0.3473
294.433	0.3418
294.782	0.3383
295.131	0.3343
295.48	0.3266
295.829	0.3244
296.179	0.3186
296.527	0.3151
296.876	0.3101
297.225	0.3053
297.574	0.3021
297.922	0.2983
298.271	0.2931
298.619	0.2887
298.968	0.284
299.316	0.2788
299.664	0.2757
300.012	0.2729
300.36	0.2683
300.708	0.2658
301.056	0.2597
301.404	0.2577
301.752	0.2552
302.099	0.251
302.447	0.2472
302.794	0.2442
303.142	0.2414
303.489	0.2374
303.836	0.2352
304.183	0.2325
304.531	0.2301
304.878	0.2263
305.224	0.2254
305.571	0.2219
305.918	0.2191
306.265	0.2178
306.611	0.2145
306.958	0.2138
307.304	0.2106
307.651	0.2098
307.997	0.2082
308.343	0.2069
308.689	0.205
309.035	0.2031
309.381	0.2028
309.727	0.2019
310.073	0.2002
310.419	0.1989
310.764	0.1974
311.11	0.1965
311.455	0.1967
311.801	0.1963
312.146	0.1944
312.491	0.1946
312.837	0.1929
313.182	0.1927
313.527	0.1933
313.872	0.1924
314.216	0.1924
314.561	0.1922
314.906	0.1922
315.251	0.1922
315.595	0.1927
315.94	0.1928
316.284	0.1925
316.628	0.1932
316.972	0.194
317.317	0.1947
317.661	0.1948
318.005	0.1955
318.348	0.1965
318.692	0.197
319.036	0.1979
319.38	0.1976
319.723	0.199
320.067	0.2003
320.41	0.2012
320.754	0.2024
321.097	0.2041
321.44	0.2044
321.783	0.2057
322.126	0.2077
322.469	0.2077
322.812	0.2097
323.155	0.2105
323.498	0.212
323.84	0.2147
324.183	0.2161
324.525	0.2178
324.868	0.2194
325.21	0.2197
325.552	0.2214
325.894	0.2234
326.236	0.2257
326.578	0.2259
326.92	0.2279
327.262	0.2299
327.604	0.2316
327.946	0.2338
328.287	0.2357
328.629	0.2374
328.97	0.239
329.312	0.2409
329.653	0.2414
329.994	0.2437
330.335	0.2453
330.676	0.2488
331.017	0.2497
331.358	0.2522
331.699	0.2539
332.04	0.2566
332.38	0.2577
332.721	0.2592
333.061	0.2615
333.402	0.2643
333.742	0.2655
334.083	0.2678
334.423	0.2682
334.763	0.2699
335.103	0.2717
335.443	0.2736
335.783	0.2753
336.123	0.2765
336.462	0.278
336.802	0.2806
337.141	0.2812
337.481	0.2827
337.82	0.2843
338.16	0.2856
338.499	0.2873
338.838	0.2886
339.177	0.2909
339.516	0.2926
339.855	0.293
340.194	0.2947
340.533	0.296
340.872	0.2971
341.21	0.2989
341.549	0.2996
341.887	0.301
342.226	0.302
342.564	0.303
342.902	0.3024
343.24	0.3037
343.578	0.3038
343.916	0.3049
344.254	0.3056
344.592	0.3063
344.93	0.3063
345.268	0.3071
345.605	0.3054
345.943	0.3067
346.28	0.3069
346.618	0.3073
346.955	0.3077
347.292	0.3071
347.629	0.308
347.966	0.3085
348.303	0.3084
348.64	0.3079
348.977	0.3084
349.314	0.309
349.65	0.3082
349.987	0.3091
350.324	0.3099
350.66	0.3078
350.996	0.3073
351.333	0.3077
351.669	0.3074
352.005	0.3054
352.341	0.3051
352.677	0.3036
353.013	0.3027
353.349	0.3012
353.685	0.3009
354.02	0.2985
354.356	0.2969
354.691	0.2968
355.027	0.2948
355.362	0.2947
355.697	0.2934
356.033	0.2925
356.368	0.2914
356.703	0.2899
357.038	0.2892
357.373	0.2866
357.707	0.2869
358.042	0.2849
358.377	0.2846
358.711	0.2827
359.046	0.2815
359.38	0.2795
359.715	0.2791
360.049	0.2773
360.383	0.2768
360.717	0.2745
361.051	0.2729
361.385	0.2714
361.719	0.2686
362.053	0.2671
362.387	0.2651
362.72	0.2631
363.054	0.2602
363.387	0.258
363.721	0.2571
364.054	0.2533
364.387	0.2516
364.721	0.25
365.054	0.2475
365.387	0.2454
365.72	0.2431
366.053	0.2412
366.385	0.2396
366.718	0.2383
367.051	0.2357
367.383	0.2341
367.716	0.2328
368.048	0.2315
368.381	0.229
368.713	0.228
369.045	0.2267
369.377	0.224
369.709	0.2236
370.041	0.2216
370.373	0.2195
370.705	0.2171
371.037	0.2152
371.368	0.2132
371.7	0.212
372.031	0.2099
372.363	0.2069
372.694	0.205
373.025	0.2015
373.356	0.2002
373.688	0.1977
374.019	0.1947
374.35	0.1928
374.68	0.1898
375.011	0.1879
375.342	0.1852
375.673	0.1833
376.003	0.1813
376.334	0.1786
376.664	0.1772
376.995	0.1758
377.325	0.1719
377.655	0.1709
377.985	0.1691
378.315	0.1669
378.645	0.1661
378.975	0.1642
379.305	0.162
379.635	0.1615
379.964	0.1596
380.294	0.1578
380.623	0.1565
380.953	0.1544
381.282	0.1527
381.611	0.1515
381.941	0.1489
382.27	0.1476
382.599	0.1461
382.928	0.144
383.257	0.1422
383.585	0.1402
383.914	0.1393
384.243	0.1366
384.571	0.134
384.9	0.1314
385.228	0.1302
385.557	0.1279
385.885	0.1265
386.213	0.1243
386.541	0.1228
386.869	0.1207
387.197	0.1181
387.525	0.117
387.853	0.1148
388.181	0.1131
388.508	0.1105
388.836	0.1092
389.164	0.1076
389.491	0.1063
389.818	0.105
390.146	0.1032
390.473	0.1018
390.8	0.1003
391.127	0.0986
391.454	0.0975
391.781	0.0964
392.108	0.0953
392.435	0.0934
392.761	0.0929
393.088	0.0917
393.415	0.0905
393.741	0.0894
394.067	0.0882
394.394	0.0869
394.72	0.0856
395.046	0.0851
395.372	0.0839
395.698	0.0834
396.024	0.0817
396.35	0.0809
396.676	0.0795
397.001	0.0782
397.327	0.0768
397.653	0.0758
397.978	0.0743
398.303	0.0737
398.629	0.0723
398.954	0.0709
399.279	0.0703
399.604	0.0695
399.929	0.0689
400.254	0.068
400.579	0.0676
400.904	0.0664
401.229	0.0659
401.553	0.0643
401.878	0.0638
402.202	0.0633
402.527	0.0624
402.851	0.0624
403.175	0.0611
403.5	0.0608
403.824	0.0606
404.148	0.0601
404.472	0.0586
404.796	0.0581
405.119	0.0584
405.443	0.0579
405.767	0.0571
406.09	0.0568
406.414	0.0563
406.737	0.0559
407.061	0.0557
407.384	0.0551
407.707	0.0553
408.03	0.0547
408.353	0.0551
408.676	0.0544
408.999	0.0538
409.322	0.0541
409.645	0.0536
409.968	0.0535
410.29	0.0532
410.613	0.0534
410.935	0.053
411.258	0.0524
411.58	0.0524
411.902	0.0525
412.224	0.052
412.546	0.0522
412.868	0.0518
413.19	0.0521
413.512	0.0517
413.834	0.051
414.156	0.0515
414.477	0.0517
414.799	0.051
415.121	0.0513
415.442	0.0512
415.763	0.0514
416.085	0.0513
416.406	0.0516
416.727	0.0511
417.048	0.0508
417.369	0.0505
417.69	0.0503
418.011	0.0502
418.331	0.0507
418.652	0.0512
418.973	0.0507
419.293	0.0508
419.614	0.0516
419.934	0.0521
420.254	0.0511
420.574	0.0513
420.895	0.0512
421.215	0.0505
421.535	0.0502
421.855	0.0504
422.174	0.0511
422.494	0.0502
422.814	0.0498
423.134	0.0506
423.453	0.0507
423.773	0.0506
424.092	0.0506
424.411	0.05
424.731	0.051
425.05	0.0502
425.369	0.0509
425.688	0.0505
426.007	0.05
426.326	0.0508
426.644	0.0509
426.963	0.0511
427.282	0.0502
427.6	0.0508
427.919	0.0501
428.237	0.0512
428.556	0.0503
428.874	0.0512
429.192	0.0508
429.51	0.0508
429.828	0.0511
430.146	0.0511
430.464	0.0504
430.782	0.0505
431.1	0.0512
431.418	0.0507
431.735	0.0502
432.053	0.0508
432.37	0.0508
432.688	0.0511
433.005	0.0505
433.322	0.0513
433.639	0.0511
433.957	0.0511
434.274	0.0511
434.591	0.0505
434.907	0.0504
435.224	0.0507
435.541	0.0507
435.858	0.0514
436.174	0.0516
436.491	0.0508
436.807	0.05
437.124	0.0501
437.44	0.0503
437.756	0.0507
438.072	0.0509
438.388	0.0506
438.704	0.0504
439.02	0.0505
439.336	0.0503
439.652	0.0499
439.968	0.0495
440.283	0.0487
440.599	0.0491
440.914	0.05
441.23	0.0496
441.545	0.0499
441.86	0.0491
442.175	0.0496
442.491	0.0498
442.806	0.049
443.121	0.0492
443.435	0.0488
443.75	0.0493
444.065	0.0489
444.38	0.049
444.694	0.0496
445.009	0.0488
445.323	0.0488
445.638	0.0479
445.952	0.0487
446.266	0.0485
446.58	0.0488
446.894	0.0488
447.208	0.0479
447.522	0.0485
447.836	0.0482
448.15	0.0474
448.464	0.0476
448.777	0.0482
449.091	0.0469
449.404	0.0474
449.718	0.0468
450.031	0.0468
450.345	0.0475
450.658	0.0473
450.971	0.0462
451.284	0.0466
451.597	0.0455
451.91	0.046
452.223	0.046
452.535	0.0457
452.848	0.046
453.161	0.0447
453.473	0.0452
453.786	0.0452
454.098	0.0451
454.411	0.0456
454.723	0.0446
455.035	0.0443
455.347	0.0441
455.659	0.0441
455.971	0.0444
456.283	0.0438
456.595	0.0438
456.907	0.0444
457.218	0.0438
457.53	0.0416
457.841	0.0433
458.153	0.0424
458.464	0.0429
458.776	0.0425
459.087	0.0419
459.398	0.0423
459.709	0.0425
460.02	0.0423
460.331	0.041
460.642	0.0416
460.953	0.0413
461.263	0.0403
461.574	0.0397
461.885	0.0405
462.195	0.0401
462.506	0.0396
462.816	0.0397
463.126	0.0404
463.437	0.0392
463.747	0.039
464.057	0.0383
464.367	0.0385
464.677	0.0384
464.987	0.0382
465.296	0.0384
465.606	0.0369
465.916	0.0373
466.225	0.0378
466.535	0.0367
466.844	0.0367
467.154	0.0371
467.463	0.0361
467.772	0.0356
468.081	0.0357
468.39	0.0353
468.699	0.0352
469.008	0.0349
469.317	0.0343
469.626	0.033
469.935	0.0332
470.243	0.0337
470.552	0.0338
470.86	0.0336
471.169	0.0325
471.477	0.033
471.785	0.0331
472.093	0.0328
472.402	0.0319
472.71	0.033
473.018	0.031
473.326	0.031
473.633	0.0325
473.941	0.0313
474.249	0.0309
474.556	0.0307
474.864	0.0311
475.171	0.03
475.479	0.0301
475.786	0.0295
476.094	0.029
476.401	0.0287
476.708	0.0286
477.015	0.0292
477.322	0.0292
477.629	0.0285
477.936	0.0278
478.242	0.0271
478.549	0.0271
478.856	0.027
479.162	0.0267
479.469	0.0267
479.775	0.0274
480.081	0.0257
480.388	0.0259
480.694	0.0264
481	0.025
481.306	0.0256
481.612	0.0262
481.918	0.0252
482.224	0.0251
482.53	0.0244
482.835	0.024
483.141	0.024
483.446	0.0241
483.752	0.024
484.057	0.0236
484.363	0.0233
484.668	0.0233
484.973	0.0221
485.278	0.0221
485.583	0.0223
485.888	0.0224
486.193	0.0215
486.498	0.0203
486.803	0.0211
487.107	0.0209
487.412	0.0211
487.717	0.0199
488.021	0.0195
488.325	0.021
488.63	0.021
488.934	0.0205
489.238	0.02
489.542	0.0196
489.846	0.0193
490.15	0.0189
490.454	0.0181
490.758	0.0176
491.062	0.0179
491.366	0.018
491.669	0.017
491.973	0.0173
492.276	0.0167
492.58	0.0176
492.883	0.0163
493.186	0.0166
493.489	0.0161
493.792	0.0154
494.096	0.0161
494.399	0.0151
494.701	0.0161
495.004	0.0145
495.307	0.0152
495.61	0.0146
495.912	0.0151
496.215	0.0135
496.517	0.0137
496.82	0.0149
497.122	0.0132
497.424	0.0134
497.727	0.0134
498.029	0.0122
498.331	0.013
498.633	0.0131
498.935	0.0128
499.237	0.0123
499.538	0.012
499.84	0.0113
500.142	0.0115
500.443	0.0106
500.745	0.0111
501.046	0.0104
501.348	0.0114
501.649	0.0099
501.95	0.0103
502.251	0.0102
502.552	0.0097
502.853	0.0098
503.154	0.0095
503.455	0.0096
503.756	0.0092
504.057	0.0096
504.357	0.0083
504.658	0.0089
504.958	0.0098
505.259	0.0095
505.559	0.0087
505.859	0.0082
506.16	0.0093
506.46	0.0077
506.76	0.0088
507.06	0.0079
507.36	0.008
507.66	0.0078
507.96	0.0083
508.259	0.0075
508.559	0.0085
508.859	0.007
509.158	0.0071
509.457	0.0067
509.757	0.0066
510.056	0.0073
510.355	0.0075
510.655	0.0067
510.954	0.0068
511.253	0.0067
511.552	0.0061
511.851	0.0063
512.149	0.0049
512.448	0.0053
512.747	0.0066
513.045	0.0053
513.344	0.0055
513.642	0.0054
513.941	0.0047
514.239	0.0055
514.537	0.0037
514.836	0.0045
515.134	0.0038
515.432	0.0048
515.73	0.0042
516.028	0.0047
516.326	0.0052
516.623	0.0049
516.921	0.0032
517.219	0.0032
517.516	0.0044
517.814	0.0037
518.111	0.0047
518.409	0.0022
518.706	0.0029
519.003	0.0043
519.3	0.0035
519.597	0.0018
519.894	0.0035
520.191	0.0034
520.488	0.0038
520.785	0.0025
521.082	0.0027
521.378	0.0017
521.675	0.0025
521.971	0.0009
522.268	0.0029
522.564	0.0019
522.861	0.0032
523.157	0.0027
523.453	0.0025
523.749	0.0023
524.045	0.0027
524.341	0.003
524.637	0.0022
524.933	0.0021
525.229	0.0024
525.524	0.0004
525.82	0.0009
526.115	0.0009
526.411	0.0017
526.706	0.0014
527.002	0.002
527.297	0.0006
527.592	0.0008
527.887	0.0031
528.182	0.0016
528.477	0.0028
528.772	0.0017
529.067	0.0018
529.362	0.002
529.657	0.0011
529.951	0.0011
530.246	0.0003
530.54	0.0005
530.835	0.0001
531.129	0.0006
531.423	-0.0002
531.718	0.0005
532.012	0.0013
532.306	0.0008
532.6	-0.0004
532.894	0.001
533.188	0.0012
533.482	0.0004
533.775	0.0008
534.069	-0
534.363	-0.0004
534.656	-0.001
534.95	0.0006
535.243	-0.0004
535.536	0.0004
535.83	-0.0015
536.123	-0.0004
536.416	-0.0002
536.709	-0.0006
537.002	-0.0003
537.295	-0.0012
537.588	-0.0003
537.881	-0.0002
538.173	0.0004
538.466	-0.0007
538.759	-0.0011
539.051	-0.0001
539.344	-0.0001
539.636	-0.0003
539.928	0.0003
540.22	0.0002
540.513	-0.0001
540.805	0.0006
541.097	-0.0007
541.389	-0.001
541.681	-0.0002
541.972	0.0006
542.264	-0.0001
542.556	0.0004
542.847	0.0013
543.139	0.0001
543.431	0.0005
543.722	0.0006
544.013	0.0006
544.305	0.0004
544.596	-0.0003
544.887	0.0003
545.178	0.0009
545.469	-0.0009
545.76	0.0001
546.051	0.0011
546.342	0.0002
546.632	-0.0002
546.923	-0.0001
547.214	-0.0005
547.504	-0
547.795	-0.0009
548.085	-0.0011
548.375	-0.0013
548.666	-0.0007
548.956	-0.0007
549.246	-0.0013
549.536	-0.0015
549.826	-0.0008
550.116	-0.0013
550.406	-0.0007
550.695	-0.0016
550.985	-0.0011
551.275	-0.0017
551.564	-0.0008
551.854	-0.0001
552.143	-0.0004
552.433	-0.0019
552.722	-0.002
553.011	-0.0005
553.3	-0.001
553.589	-0.0003
553.879	-0.0005
554.167	-0.0005
554.456	0.0007
554.745	0.0003
555.034	-0.0017
555.323	0
555.611	-0.0005
555.9	-0.0002
556.188	-0.0018
556.477	0.0002
556.765	-0.002
557.053	-0.0018
557.342	-0.0009
557.63	-0.0007
557.918	0.0003
558.206	0.0003
558.494	0
558.782	-0.0001
559.069	0.0003
559.357	0.0003
559.645	-0.0005
559.932	0.0003
560.22	-0.0009
560.507	-0.0019
560.795	-0.0009
561.082	-0.002
561.37	-0
561.657	-0.0008
561.944	-0.0017
562.231	-0.0002
562.518	-0.0003
562.805	-0.0004
563.092	-0.0001
563.379	0.0004
563.665	0.0007
563.952	-0.0002
564.239	-0.0008
564.525	0.0009
564.811	0.0015
565.098	0.0004
565.384	-0.0009
565.67	0.0001
565.957	0.0007
566.243	0.0022
566.529	0.0003
566.815	0.0002
567.101	0.0014
567.387	0.0002
567.672	0.0004
567.958	0.0014
568.244	0.0007
568.529	0.0012
568.815	-0.0007
569.1	-0.0005
569.386	-0.0008
569.671	0.001
569.956	0
570.242	0.0004
570.527	-0.0001
570.812	-0.0001
571.097	0.0003
571.382	-0
571.666	0.0009
571.951	0.0007
572.236	-0.0001
572.521	0
572.805	-0.0003
573.09	-0.0005
573.374	-0.0006
573.659	0.0002
573.943	-0.0004
574.227	-0.0007
574.511	-0.001
574.795	-0.0009
575.079	-0.0004
575.363	-0.0005
575.647	-0.0006
575.931	-0.0003
576.215	-0.0019
576.499	-0.0005
576.782	-0.0007
577.066	-0.0002
577.349	0.0003
577.633	-0.0007
577.916	-0.0007
578.2	-0.0001
578.483	-0.0006
578.766	0.0001
579.049	-0.0005
579.332	0.0004
579.615	0.0003
579.898	-0.0002
580.181	0.0005
580.464	0.0007
580.746	0.0003
581.029	-0.0001
581.312	-0.0003
581.594	-0.0001
581.877	-0.0008
582.159	-0.0014
582.441	-0.0005
582.724	-0.0013
583.006	0.0001
583.288	-0.0002
583.57	0.0005
583.852	0.0004
584.134	0.0005
584.416	-0.0001
584.697	0.0004
584.979	-0.0011
585.261	-0.0014
585.542	-0.0005
585.824	-0.001
586.105	-0.0009
586.387	-0.0016
586.668	-0.0011
586.949	0.0003
587.231	0.0003
587.512	0.0002
587.793	0.0003
588.074	-0.0016
588.355	0
588.636	-0.0006
588.916	-0.0012
589.197	-0.0011
589.478	-0.0006
589.758	-0.0006
590.039	0.0001
590.319	-0.0004
590.6	0.0008
590.88	0.0006
591.16	0.0001
591.441	0.0007
591.721	0.0001
592.001	0.0001
592.281	0.0001
592.561	-0.0003
592.841	-0.0003
593.12	-0.0016
593.4	-0.0012
593.68	-0.0022
593.959	-0.0021
594.239	-0.0019
594.518	-0.0011
594.798	0.0001
595.077	-0.0005
595.356	-0.0007
595.636	-0.0016
595.915	-0.0008
596.194	-0.0011
596.473	-0.0001
596.752	0.0002
597.031	0.0004
597.31	-0.0001
597.588	-0.0008
597.867	-0.0003
598.146	-0.0015
598.424	-0.0005
598.703	-0.0002
598.981	-0.0012
599.259	-0.0016
599.538	-0.0008
599.816	0
600.094	-0.0002
600.372	-0.0016
600.65	-0.002
600.928	-0.001
601.206	-0.0004
601.484	-0.0003
601.762	-0.0002
602.04	-0.0003
602.317	-0.0003
602.595	-0.0004
602.872	0.0007
603.15	0.0006
603.427	-0.0011
603.704	-0.001
603.982	-0.001
604.259	-0.0006
604.536	-0
604.813	-0.0004
605.09	-0.0009
605.367	-0.0003
605.644	-0.0016
605.921	-0.0013
606.197	-0.0007
606.474	-0.001
606.751	-0.001
607.027	-0.0006
607.304	-0.0006
607.58	-0.0007
607.856	-0.0017
608.133	-0.0015
608.409	-0.0006
608.685	0.0001
608.961	-0.0011
609.237	-0.0011
609.513	-0.0007
609.789	-0.0005
610.065	-0.0003
610.341	-0.0008
610.616	-0.0009
610.892	0.0007
611.167	0.0009
611.443	0.0005
611.718	0.0001
611.994	0.0005
612.269	-0.0003
612.544	-0.0008
612.819	-0.0006
613.095	-0.0007
613.37	0
613.645	-0.0011
613.919	-0.0007
614.194	-0.0001
614.469	0.0005
614.744	0.0005
615.019	-0.0009
615.293	-0.001
615.568	-0.0016
615.842	-0.0003
616.116	0.0001
616.391	0.0003
616.665	0.0015
616.939	0.0004
617.213	0.0005
617.488	0.0003
617.762	-0.0007
618.035	-0.0003
618.309	-0.0012
618.583	-0.0004
618.857	0.0003
619.131	0.0007
619.404	0.0006
619.678	0.0004
619.951	-0.0003
620.225	-0.0005
620.498	-0.0008
620.771	-0.0007
621.045	-0.0011
621.318	-0.0025
621.591	-0.0023
621.864	-0.0016
622.137	-0.0021
622.41	-0.0027
622.683	-0.0013
622.956	-0.0004
623.228	-0.0008
623.501	-0.0004
623.774	-0.0008
624.046	-0.0009
624.319	-0.0014
624.591	-0.0011
624.863	-0.0004
625.136	-0.0003
625.408	0.0011
625.68	0.0002
625.952	0.0002
626.224	-0.0003
626.496	0.0003
626.768	-0.0008
627.04	-0.0004
627.311	-0.0004
627.583	-0.0008
627.855	0.0011
628.126	0.0014
628.398	0.0019
628.669	0.0018
628.941	0.0018
629.212	0.0011
629.483	0.0018
629.755	-0
630.026	0.0003
630.297	0.0006
630.568	0.0003
630.839	0.0011
631.11	0.0003
631.38	0.001
631.651	0.0015
631.922	0.0009
632.192	-0.0005
632.463	-0.0006
632.733	-0.0009
633.004	-0.0005
633.274	0.0002
633.545	0.0006
633.815	0.0004
634.085	-0.0023
634.355	-0.002
634.625	-0.0018
634.895	-0.0016
635.165	-0.001
635.435	-0.0025
635.705	-0.0011
635.974	-0.0015
636.244	-0.0007
636.514	0.0003
636.783	-0.0018
637.053	-0.0007
637.322	-0.0003
637.591	-0.0006
637.861	-0.0023
638.13	-0.0018
638.399	-0.0021
638.668	-0.0026
638.937	-0.0028
639.206	-0.0027
639.475	-0.0032
639.744	-0.0038
640.013	-0.0029
640.281	-0.0026
640.55	-0.0022
640.819	-0.0023
641.087	-0.0032
641.356	-0.0024
641.624	-0.0015
641.892	-0.0012
642.161	-0.0007
642.429	-0.0008
642.697	-0.0018
642.965	-0.0004
643.233	-0.0018
643.501	-0.0014
643.769	-0.0002
644.037	-0.0019
644.305	-0.0016
644.572	-0.0016
644.84	-0.0016
645.108	-0.0037
645.375	-0.0036
645.643	-0.0023
645.91	-0.0018
646.177	-0.001
646.445	-0.0011
646.712	0.0009
646.979	0.0006
647.246	0.0019
647.513	0.0014
647.78	0.0003
648.047	-0.0013
648.314	-0.0026
648.58	-0.0021
648.847	-0.0022
649.114	-0.0012
649.38	-0.0007
649.647	-0.002
649.913	-0.0017
650.18	-0.0015
650.446	-0.001
650.712	-0.0024
650.978	-0.0018
651.245	-0.0028
651.511	-0.0016
651.777	-0.0017
652.043	-0.0028
652.309	-0.0008
652.574	-0.0003
652.84	0.0004
653.106	-0.0002
653.371	-0.0002
653.637	0.0005
653.903	-0
654.168	0.0003
654.433	0.0015
654.699	0.0016
654.964	0.0023
655.229	0.001
655.494	0.0002
655.759	-0.0011
656.024	0.0003
656.289	-0
656.554	-0.0023
656.819	-0.002
657.084	-0.001
657.349	-0.0008
657.613	-0.0001
657.878	-0.0007
658.142	-0.0012
658.407	-0.0011
658.671	-0.0009
658.936	-0.0011
659.2	-0.0005
659.464	-0.0008
659.728	-0.0003
659.992	-0.0016
660.256	-0.0009
660.52	-0.0008
660.784	-0.0013
661.048	0.0003
661.312	-0.0001
661.575	0
661.839	0.0004
662.103	-0.0006
662.366	-0.0009
662.63	-0.0013
662.893	-0.0011
663.156	-0.0017
663.42	-0.003
663.683	-0.0032
663.946	-0.0036
664.209	-0.0035
664.472	-0.004
664.735	-0.0023
664.998	-0.0015
665.261	-0.0021
665.524	-0.0018
665.786	-0.0018
666.049	-0.0023
666.312	-0.0025
666.574	-0.0024
666.837	-0.0014
667.099	-0.001
667.361	-0.0016
667.624	-0.0026
667.886	-0.003
668.148	-0.0028
668.41	-0.0019
668.672	-0.0023
668.934	-0.0004
669.196	-0.0002
669.458	0.0002
669.72	0.0008
669.982	0.0012
670.243	0.0002
670.505	0.0001
670.766	-0.0004
671.028	-0.0014
671.289	-0.0026
671.551	-0.0016
671.812	-0.0023
672.073	-0.0026
672.334	-0.0021
672.596	-0.003
672.857	-0.0034
673.118	-0.003
673.379	-0.0034
673.639	-0.0032
673.9	-0.0024
674.161	-0.0028
674.422	-0.0037
674.682	-0.0035
674.943	-0.0033
675.203	-0.003
675.464	-0.0036
675.724	-0.0046
675.985	-0.005
676.245	-0.0045
676.505	-0.004
676.765	-0.0044
677.025	-0.004
677.285	-0.0042
677.545	-0.0023
677.805	-0.0013
678.065	-0.0019
678.325	-0.0015
678.585	-0.0029
678.844	-0.0032
679.104	-0.0037
679.363	-0.0043
679.623	-0.0037
679.882	-0.003
680.142	-0.0027
680.401	-0.003
680.66	-0.0017
680.919	-0.0004
681.178	-0.0021
681.437	-0.0012
681.696	-0.0018
681.955	-0.0019
682.214	-0.0016
682.473	-0.0021
682.732	-0.0032
682.99	-0.0022
683.249	-0.0014
683.508	-0.0017
683.766	-0.0016
684.024	-0.0024
684.283	-0.0015
684.541	-0.001
684.799	-0.0011
685.058	-0.0014
685.316	-0.0024
685.574	-0.0019
685.832	-0.0028
686.09	-0.0028
686.348	-0.0041
686.606	-0.0039
686.863	-0.0042
687.121	-0.003
687.379	-0.0019
687.636	-0.0027
687.894	-0.0018
688.151	-0.0012
688.409	-0.0012
688.666	-0.0029
688.923	-0.0036
689.181	-0.003
689.438	-0.0036
689.695	-0.0033
689.952	-0.0046
690.209	-0.004
690.466	-0.0038
690.723	-0.0037
690.979	-0.0022
691.236	-0.0022
691.493	-0.002
691.75	-0.0016
692.006	-0.0022
692.263	-0.0029
692.519	-0.0033
692.775	-0.0026
693.032	-0.0035
693.288	-0.0014
693.544	-0.0012
693.8	-0.0013
694.056	-0.0015
694.313	-0.0014
694.568	-0.0013
694.824	-0.0018
695.08	-0.0024
695.336	-0.003
695.592	-0.003
695.847	-0.0025
696.103	-0.0031
696.359	-0.0026
696.614	-0.0034
696.869	-0.0035
697.125	-0.0039
697.38	-0.0031
697.635	-0.0027
697.891	-0.0018
698.146	-0.0019
698.401	-0.0023
698.656	-0.0026
698.911	-0.0027
699.166	-0.0022
699.42	-0.0011
699.675	-0.0016
699.93	-0.0016
700.185	-0.0018
700.439	-0.0016
700.694	-0.0022
700.948	-0.0021
701.203	-0.0019
701.457	-0.0027
701.711	-0.0041
701.965	-0.0035
702.22	-0.0035
702.474	-0.0034
702.728	-0.0029
702.982	-0.0029
703.236	-0.0021
703.49	-0.0011
703.743	-0.0018
703.997	-0.0014
704.251	-0.0025
704.504	-0.0022
704.758	-0.0023
705.012	-0.002
705.265	-0.0014
705.518	-0.0003
705.772	-0.0015
706.025	-0.0013
706.278	-0.0023
706.531	-0.0023
706.785	-0.0025
707.038	-0.0029
707.291	-0.0025
707.543	-0.0028
707.796	-0.0035
708.049	-0.0035
708.302	-0.0046
708.555	-0.0046
708.807	-0.0032
709.06	-0.0045
709.312	-0.003
709.565	-0.0035
709.817	-0.0049
710.069	-0.0045
710.322	-0.0048
710.574	-0.0051
710.826	-0.0047
711.078	-0.0052
711.33	-0.0045
711.582	-0.0059
711.834	-0.0056
712.086	-0.0061
712.338	-0.0068
712.59	-0.0054
712.841	-0.0059
713.093	-0.0062
713.344	-0.0062
713.596	-0.0056
713.847	-0.0044
714.099	-0.0055
714.35	-0.0047
714.601	-0.0042
714.853	-0.0038
715.104	-0.0042
715.355	-0.004
715.606	-0.0044
715.857	-0.0038
716.108	-0.0046
716.359	-0.0043
716.609	-0.0046
716.86	-0.0052
717.111	-0.0033
717.361	-0.0032
717.612	-0.002
717.863	-0.0013
718.113	-0.001
718.363	-0.0014
718.614	-0.0005
718.864	-0.001
719.114	-0.0017
719.364	-0.0008
719.614	-0.0014
719.865	-0.0009
720.114	0.0001
720.364	0.0003
720.614	0.0006
720.864	-0.0005
721.114	0
721.364	-0.0006
721.613	-0.0008
721.863	-0.0015
722.112	-0.002
722.362	-0.0017
722.611	-0.0033
722.86	-0.0028
723.11	-0.003
723.359	-0.0027
723.608	-0.0025
723.857	-0.0019
724.106	-0.0017
724.355	-0.0016
724.604	-0.0018
724.853	-0.0019
725.102	-0.0037
725.351	-0.0035
725.599	-0.0038
725.848	-0.0037
726.097	-0.0034
726.345	-0.0038
726.594	-0.0043
726.842	-0.0041
727.09	-0.0051
727.339	-0.0057
727.587	-0.0062
727.835	-0.0057
728.083	-0.0051
728.331	-0.0056
728.579	-0.0042
728.827	-0.004
729.075	-0.0041
729.323	-0.0035
729.571	-0.0035
729.818	-0.003
730.066	-0.0032
730.314	-0.0034
730.561	-0.001
730.809	-0.0016
731.056	-0.0012
731.303	-0.001
731.551	-0.0014
731.798	-0.0014
732.045	-0.0019
732.292	-0.0007
732.539	-0.0001
732.786	0.0013
733.033	-0.0002
733.28	-0.0006
733.527	-0.0006
733.774	-0.0011
734.021	-0.0032
734.267	-0.0032
734.514	-0.0028
734.76	-0.0036
735.007	-0.0038
735.253	-0.0033
735.5	-0.0036
735.746	-0.003
735.992	-0.0026
736.238	-0.0027
736.485	-0.0021
736.731	-0.003
736.977	-0.0024
737.223	-0.0025
737.469	-0.0025
737.715	-0.0018
737.96	-0.0023
738.206	-0.003
738.452	-0.0026
738.697	-0.0024
738.943	-0.0023
739.189	-0.002
739.434	-0.0016
739.679	-0.0028
739.925	-0.0034
740.17	-0.0045
740.415	-0.0047
740.66	-0.0059
740.906	-0.0062
741.151	-0.005
741.396	-0.0055
741.641	-0.0062
741.886	-0.0058
742.13	-0.0033
742.375	-0.0029
742.62	-0.0034
742.865	-0.0034
743.109	-0.0021
743.354	-0.0011
743.598	0.0003
743.843	-0.0003
744.087	0.0005
744.331	0.0007
744.576	0.0015
744.82	0.0017
745.064	0.0014
745.308	0.0017
745.552	0.0016
745.796	0.0001
746.04	0.0006
746.284	0.0001
746.528	0.0004
746.771	0.0017
747.015	0.0019
747.259	0.0007
747.502	-0.0004
747.746	-0.001
747.989	-0.0007
748.233	-0.0013
748.476	0.0001
748.719	0.0003
748.963	0.0015
749.206	0.0019
749.449	0.0007
749.692	-0
749.935	0.0007
750.178	-0.0004
750.421	-0.001
750.664	-0.0013
750.906	0.0006
751.149	0.0006
751.392	0.0001
751.635	-0.0006
751.877	-0.0006
752.12	-0.0011
752.362	-0.001
752.604	-0.001
752.847	0.0008
753.089	0.0008
753.331	0.001
753.573	0.0006
753.816	-0.0014
754.058	-0.002
754.3	-0.0038
754.542	-0.0035
754.783	-0.0037
755.025	-0.0028
755.267	-0.0028
755.509	-0.0032
755.75	-0.0032
755.992	-0.0034
756.234	-0.0039
756.475	-0.0035
756.716	-0.0036
756.958	-0.0028
757.199	-0.0025
757.44	-0.0017
757.682	-0.0015
757.923	-0.0014
758.164	-0.0003
758.405	-0.0001
758.646	0.0013
758.887	0.0006
759.128	0.0011
759.369	0.0003
759.609	0.0007
759.85	0.0008
760.091	0.0004
760.331	0.0005
760.572	-0.0014
760.812	-0.0008
761.053	-0.001
761.293	-0.0011
761.533	-0.0005
761.774	0.0014
762.014	0.0009
762.254	0.0005
762.494	-0.001
762.734	-0.0012
762.974	-0.0008
763.214	-0.0011
763.454	-0.0014
763.694	-0.001
763.933	-0.0027
764.173	-0.005
764.413	-0.0039
764.652	-0.0045
764.892	-0.0034
765.131	-0.0037
765.371	-0.0037
765.61	-0.0046
765.849	-0.0041
766.089	-0.0036
766.328	-0.0032
766.567	-0.0034
766.806	-0.0037
767.045	-0.003
767.284	-0.0028
767.523	-0.0039
767.762	-0.0042
768.001	-0.0035
768.239	-0.003
768.478	-0.0019
768.717	-0.0022
768.955	-0.002
769.194	-0.0019
769.432	-0.0005
769.671	-0.0003
769.909	-0
770.148	-0.0003
770.386	0.0007
770.624	0.001
770.862	0.0014
771.1	0.0018
771.338	0.0016
771.576	-0.0003
771.814	0.0014
772.052	0.0008
772.29	0.0025
772.528	0.0032
772.765	0.0039
773.003	0.0043
773.24	0.0042
773.478	0.0026
773.716	0.002
773.953	0.0019
774.19	0.0016
774.428	0.0027
774.665	0.0027
774.902	0.0029
775.139	0.0032
775.376	0.0025
775.613	0.0021
775.85	0.0017
776.087	0.0013
776.324	0.0014
776.561	0.001
776.798	0.0008
777.034	0.0009
777.271	0.0019
777.508	0.0024
777.744	0.0016
777.981	0.0028
778.217	0.003
778.454	0.0022
778.69	0.0009
778.926	-0.0004
779.162	-0.0004
779.399	-0.0005
779.635	-0.0007
779.871	-0.0004
780.107	0
780.343	-0.0014
780.579	-0.001
780.814	-0.0012
781.05	-0.0003
781.286	-0.0018
781.522	-0.0012
781.757	-0.0009
781.993	-0.0014
782.228	-0.0019
782.464	-0.0011
782.699	-0.0012
782.934	-0.0016
783.17	-0.0023
783.405	-0.0018
783.64	-0.0023
783.875	-0.0029
784.11	-0.0032
784.345	-0.0022
784.58	-0.0022
784.815	-0.001
785.05	-0.0026
785.285	-0.0024
785.52	-0.0028
785.754	-0.0041
785.989	-0.0035
786.223	-0.0049
786.458	-0.0048
786.692	-0.0044
786.927	-0.0042
787.161	-0.003
787.396	-0.0039
787.63	-0.0039
787.864	-0.0049
788.098	-0.0057
788.332	-0.0057
788.566	-0.0049
788.8	-0.0039
789.034	-0.0031
789.268	-0.0041
789.502	-0.003
789.736	-0.003
789.969	-0.0036
790.203	-0.0036
790.437	-0.0049
790.67	-0.0055
790.904	-0.0066
791.137	-0.0073
791.37	-0.0074
791.604	-0.0087
791.837	-0.0071
792.07	-0.0068
792.303	-0.0069
792.537	-0.0065
792.77	-0.0068
793.003	-0.0057
793.236	-0.0048
793.469	-0.0049
793.701	-0.0034
793.934	-0.002
794.167	-0.0015
794.4	-0.0019
794.632	-0.0008
794.865	-0.0016
795.097	-0.0012
795.33	-0.0026
795.562	-0.0008
795.795	-0.0003
796.027	-0.0006
796.259	0
796.491	0.0005
796.724	-0.0003
796.956	0.0002
797.188	0.0006
797.42	-0.0004
797.652	0
797.883	-0.0005
798.115	0.0003
798.347	0.0001
798.579	0.001
798.81	0.0007
799.042	0.0012
799.274	0.0005
799.505	-0.0001
799.737	-0.0003
799.968	-0.0012
800.199	-0.002
800.431	-0.0023
800.662	-0.0024
800.893	-0.0033
801.124	-0.003
801.355	-0.0035
801.586	-0.003
801.817	-0.0035
802.048	-0.0044
802.279	-0.0048
802.51	-0.0027
802.741	-0.0012
802.971	0.0001
803.202	-0.0007
803.433	-0.0009
803.663	-0.0025
803.894	-0.0032
804.124	-0.0041
804.354	-0.0033
804.585	-0.0034
804.815	-0.0033
805.045	-0.003
805.275	-0.0027
805.506	-0.0668
805.736	0.0034
805.966	0.024
806.196	0.0303
