Data from 03 0.5 mM K2Cr2O7 0.3 mM BQDS 1 M H2SO4 5 min_Absorbance_0207.txt Node
Date: Tue Dec 14 10:54:45 EST 2021
User: kwabilab-user
Spectrometer: HDX00518
Trigger mode: 0
Integration Time (sec): 5.000000E-2
Scans to average: 50
Nonlinearity correction enabled: false
Boxcar width: 0
Storing dark spectrum: false
XAxis mode: Wavelengths
Number of Pixels in Spectrum: 2068
>>>>>Begin Spectral Data<<<<<
195.27	-0.0474
195.642	0.1063
196.014	0.1007
196.386	0.2033
196.758	-0
197.129	0.0002
197.501	0.0008
197.872	0.0256
198.244	0.024
198.615	0.0527
198.986	0.0363
199.357	0.0585
199.728	0.0544
200.099	0.0493
200.47	0.0254
200.841	0.0382
201.212	0.0601
201.582	0.0535
201.953	0.0538
202.323	0.0693
202.694	0.0545
203.064	0.0496
203.434	0.0555
203.804	0.0378
204.174	0.0465
204.544	0.0525
204.914	0.0671
205.284	0.0612
205.653	0.0533
206.023	0.0405
206.393	0.0354
206.762	0.0524
207.131	0.0617
207.501	0.0326
207.87	0.0645
208.239	0.0688
208.608	0.0451
208.977	0.0197
209.346	0.0509
209.715	0.057
210.083	0.0194
210.452	0.0434
210.82	0.051
211.189	0.0349
211.557	0.0689
211.925	0.037
212.294	0.0488
212.662	0.0531
213.03	0.0559
213.398	0.0645
213.766	0.0746
214.133	0.0535
214.501	0.0624
214.869	0.0538
215.236	0.0631
215.604	0.0712
215.971	0.0745
216.338	0.0808
216.705	0.0938
217.072	0.0941
217.439	0.0669
217.806	0.0784
218.173	0.0704
218.54	0.0791
218.907	0.12
219.273	0.0934
219.64	0.08
220.006	0.1171
220.373	0.1145
220.739	0.1313
221.105	0.1375
221.471	0.1666
221.837	0.1783
222.203	0.2138
222.569	0.2084
222.935	0.2411
223.3	0.2387
223.666	0.2533
224.031	0.3003
224.397	0.2873
224.762	0.3138
225.127	0.3354
225.493	0.3869
225.858	0.4059
226.223	0.4084
226.588	0.4334
226.952	0.4632
227.317	0.4868
227.682	0.5023
228.046	0.4975
228.411	0.5218
228.775	0.5382
229.14	0.5382
229.504	0.5573
229.868	0.5747
230.232	0.5791
230.596	0.5965
230.96	0.6338
231.324	0.617
231.688	0.6194
232.052	0.6425
232.415	0.6275
232.779	0.6542
233.142	0.6556
233.505	0.6501
233.869	0.6691
234.232	0.6485
234.595	0.6597
234.958	0.6695
235.321	0.6604
235.684	0.6582
236.047	0.6646
236.409	0.6564
236.772	0.6503
237.134	0.6707
237.497	0.6452
237.859	0.6639
238.222	0.6564
238.584	0.6407
238.946	0.6433
239.308	0.6488
239.67	0.6426
240.032	0.6414
240.393	0.6398
240.755	0.6442
241.117	0.6458
241.478	0.6362
241.84	0.6307
242.201	0.6232
242.562	0.6252
242.924	0.6195
243.285	0.6148
243.646	0.621
244.007	0.609
244.368	0.6086
244.728	0.6078
245.089	0.6132
245.45	0.6061
245.81	0.6001
246.171	0.5959
246.531	0.5972
246.891	0.6009
247.252	0.5939
247.612	0.5929
247.972	0.6004
248.332	0.5937
248.692	0.5926
249.051	0.5922
249.411	0.5895
249.771	0.5835
250.13	0.5834
250.49	0.5808
250.849	0.5859
251.208	0.5849
251.568	0.5858
251.927	0.5767
252.286	0.5832
252.645	0.5744
253.004	0.5825
253.363	0.5762
253.721	0.5782
254.08	0.5761
254.439	0.5702
254.797	0.5719
255.155	0.5674
255.514	0.568
255.872	0.5717
256.23	0.5659
256.588	0.5639
256.946	0.5683
257.304	0.5616
257.662	0.568
258.02	0.5615
258.377	0.558
258.735	0.5621
259.093	0.5533
259.45	0.5547
259.807	0.5527
260.165	0.5539
260.522	0.5543
260.879	0.545
261.236	0.546
261.593	0.5395
261.95	0.5376
262.306	0.5417
262.663	0.5381
263.02	0.5391
263.376	0.5362
263.733	0.5325
264.089	0.5275
264.445	0.5274
264.802	0.5258
265.158	0.5297
265.514	0.5242
265.87	0.5159
266.226	0.5152
266.581	0.517
266.937	0.5124
267.293	0.5072
267.648	0.5029
268.004	0.5048
268.359	0.494
268.714	0.4918
269.07	0.4887
269.425	0.4915
269.78	0.4809
270.135	0.4862
270.49	0.4827
270.844	0.4731
271.199	0.4743
271.554	0.4756
271.908	0.4707
272.263	0.4681
272.617	0.4647
272.972	0.4625
273.326	0.4565
273.68	0.4542
274.034	0.4526
274.388	0.4484
274.742	0.4437
275.096	0.4444
275.45	0.439
275.803	0.4373
276.157	0.4308
276.51	0.4262
276.864	0.4262
277.217	0.419
277.571	0.4229
277.924	0.4124
278.277	0.4132
278.63	0.4105
278.983	0.4016
279.336	0.3987
279.688	0.3936
280.041	0.3908
280.394	0.3892
280.746	0.3839
281.099	0.3804
281.451	0.3764
281.803	0.3697
282.156	0.3666
282.508	0.361
282.86	0.3618
283.212	0.3552
283.564	0.3519
283.916	0.3472
284.267	0.3415
284.619	0.3388
284.971	0.3346
285.322	0.3329
285.673	0.3254
286.025	0.3229
286.376	0.3202
286.727	0.3174
287.078	0.3127
287.429	0.3092
287.78	0.3067
288.131	0.3014
288.482	0.2968
288.833	0.2921
289.183	0.2901
289.534	0.2853
289.884	0.2822
290.235	0.278
290.585	0.2737
290.935	0.2705
291.285	0.2662
291.635	0.2634
291.985	0.2594
292.335	0.2561
292.685	0.2541
293.035	0.2504
293.384	0.2455
293.734	0.2419
294.083	0.2386
294.433	0.2341
294.782	0.2318
295.131	0.2284
295.48	0.2224
295.829	0.221
296.179	0.2176
296.527	0.2147
296.876	0.21
297.225	0.2068
297.574	0.2028
297.922	0.2025
298.271	0.1979
298.619	0.1939
298.968	0.1916
299.316	0.189
299.664	0.1867
300.012	0.1838
300.36	0.181
300.708	0.1791
301.056	0.1762
301.404	0.1729
301.752	0.1713
302.099	0.1685
302.447	0.1665
302.794	0.1639
303.142	0.1619
303.489	0.159
303.836	0.1589
304.183	0.1566
304.531	0.1544
304.878	0.1527
305.224	0.1514
305.571	0.1498
305.918	0.1477
306.265	0.1475
306.611	0.1443
306.958	0.1453
307.304	0.1421
307.651	0.1422
307.997	0.1412
308.343	0.1403
308.689	0.1388
309.035	0.1371
309.381	0.1384
309.727	0.1363
310.073	0.1357
310.419	0.1361
310.764	0.1341
311.11	0.1347
311.455	0.1344
311.801	0.1341
312.146	0.1329
312.491	0.1335
312.837	0.1324
313.182	0.1331
313.527	0.1329
313.872	0.1334
314.216	0.1329
314.561	0.1332
314.906	0.1329
315.251	0.1336
315.595	0.1334
315.94	0.1345
316.284	0.1348
316.628	0.1352
316.972	0.1367
317.317	0.1369
317.661	0.1366
318.005	0.1375
318.348	0.1394
318.692	0.1398
319.036	0.1402
319.38	0.1403
319.723	0.1414
320.067	0.1431
320.41	0.1441
320.754	0.1452
321.097	0.1457
321.44	0.1472
321.783	0.1484
322.126	0.1498
322.469	0.1503
322.812	0.1515
323.155	0.1534
323.498	0.1545
323.84	0.156
324.183	0.1575
324.525	0.1596
324.868	0.1608
325.21	0.1614
325.552	0.1634
325.894	0.1645
326.236	0.1658
326.578	0.1668
326.92	0.1693
327.262	0.171
327.604	0.1724
327.946	0.1735
328.287	0.1751
328.629	0.1775
328.97	0.179
329.312	0.1801
329.653	0.1811
329.994	0.183
330.335	0.1846
330.676	0.1871
331.017	0.1887
331.358	0.1905
331.699	0.1924
332.04	0.1935
332.38	0.1951
332.721	0.1972
333.061	0.199
333.402	0.2008
333.742	0.2021
334.083	0.2036
334.423	0.2051
334.763	0.2063
335.103	0.208
335.443	0.2095
335.783	0.2107
336.123	0.2115
336.462	0.2135
336.802	0.2165
337.141	0.2158
337.481	0.2173
337.82	0.2188
338.16	0.22
338.499	0.2222
338.838	0.2235
339.177	0.2246
339.516	0.2259
339.855	0.2276
340.194	0.2283
340.533	0.23
340.872	0.2306
341.21	0.2317
341.549	0.2333
341.887	0.2336
342.226	0.234
342.564	0.2352
342.902	0.2356
343.24	0.2365
343.578	0.2375
343.916	0.2377
344.254	0.2382
344.592	0.2377
344.93	0.2386
345.268	0.24
345.605	0.2386
345.943	0.2403
346.28	0.241
346.618	0.2415
346.955	0.241
347.292	0.2411
347.629	0.2414
347.966	0.2416
348.303	0.242
348.64	0.2424
348.977	0.2418
349.314	0.2426
349.65	0.243
349.987	0.2428
350.324	0.2436
350.66	0.2435
350.996	0.2417
351.333	0.2422
351.669	0.2413
352.005	0.2406
352.341	0.2395
352.677	0.2395
353.013	0.2387
353.349	0.237
353.685	0.2368
354.02	0.2353
354.356	0.2337
354.691	0.2334
355.027	0.2324
355.362	0.2321
355.697	0.2309
356.033	0.2304
356.368	0.229
356.703	0.2288
357.038	0.2284
357.373	0.2261
357.707	0.2256
358.042	0.2245
358.377	0.2247
358.711	0.2229
359.046	0.2215
359.38	0.2207
359.715	0.2203
360.049	0.2185
360.383	0.2182
360.717	0.2164
361.051	0.2156
361.385	0.2139
361.719	0.2114
362.053	0.211
362.387	0.2088
362.72	0.2076
363.054	0.2049
363.387	0.2034
363.721	0.2024
364.054	0.1991
364.387	0.1985
364.721	0.1969
365.054	0.195
365.387	0.1934
365.72	0.1911
366.053	0.19
366.385	0.1881
366.718	0.187
367.051	0.1851
367.383	0.1836
367.716	0.1827
368.048	0.1812
368.381	0.1794
368.713	0.1793
369.045	0.1781
369.377	0.1763
369.709	0.1751
370.041	0.1741
370.373	0.1728
370.705	0.1702
371.037	0.1688
371.368	0.1672
371.7	0.1666
372.031	0.1646
372.363	0.1625
372.694	0.1597
373.025	0.1578
373.356	0.1553
373.688	0.1539
374.019	0.1523
374.35	0.1501
374.68	0.1484
375.011	0.1465
375.342	0.1445
375.673	0.1428
376.003	0.1409
376.334	0.139
376.664	0.1372
376.995	0.1352
377.325	0.1333
377.655	0.1324
377.985	0.1307
378.315	0.129
378.645	0.1283
378.975	0.127
379.305	0.1256
379.635	0.1247
379.964	0.1232
380.294	0.121
380.623	0.1201
380.953	0.1191
381.282	0.118
381.611	0.1157
381.941	0.1149
382.27	0.1137
382.599	0.1117
382.928	0.1107
383.257	0.1095
383.585	0.107
383.914	0.1061
384.243	0.1038
384.571	0.1028
384.9	0.1003
385.228	0.0997
385.557	0.0974
385.885	0.0958
386.213	0.0942
386.541	0.093
386.869	0.0912
387.197	0.0891
387.525	0.0882
387.853	0.0866
388.181	0.0854
388.508	0.0838
388.836	0.0822
389.164	0.0806
389.491	0.0801
389.818	0.0786
390.146	0.0776
390.473	0.0765
390.8	0.0753
391.127	0.0734
391.454	0.0729
391.781	0.0715
392.108	0.0704
392.435	0.069
392.761	0.0681
393.088	0.0682
393.415	0.0669
393.741	0.0665
394.067	0.0648
394.394	0.065
394.72	0.0637
395.046	0.0629
395.372	0.0626
395.698	0.0618
396.024	0.06
396.35	0.0597
396.676	0.0581
397.001	0.0577
397.327	0.0565
397.653	0.0555
397.978	0.0542
398.303	0.0532
398.629	0.052
398.954	0.0513
399.279	0.0513
399.604	0.0505
399.929	0.0501
400.254	0.0491
400.579	0.0489
400.904	0.0488
401.229	0.0474
401.553	0.0465
401.878	0.0461
402.202	0.0457
402.527	0.0451
402.851	0.0447
403.175	0.0439
403.5	0.0436
403.824	0.0432
404.148	0.0432
404.472	0.0426
404.796	0.0421
405.119	0.0418
405.443	0.0414
405.767	0.0408
406.09	0.0405
406.414	0.0408
406.737	0.0401
407.061	0.0405
407.384	0.04
407.707	0.0398
408.03	0.0391
408.353	0.0397
408.676	0.0393
408.999	0.0389
409.322	0.0391
409.645	0.0391
409.968	0.0387
410.29	0.0388
410.613	0.0382
410.935	0.0385
411.258	0.0378
411.58	0.0383
411.902	0.038
412.224	0.0376
412.546	0.0379
412.868	0.0371
413.19	0.0377
413.512	0.0377
413.834	0.0364
414.156	0.0367
414.477	0.0378
414.799	0.037
415.121	0.0382
415.442	0.0373
415.763	0.0372
416.085	0.0373
416.406	0.0377
416.727	0.0381
417.048	0.037
417.369	0.0371
417.69	0.0367
418.011	0.0369
418.331	0.0371
418.652	0.0373
418.973	0.0371
419.293	0.0375
419.614	0.0375
419.934	0.038
420.254	0.0375
420.574	0.0376
420.895	0.0375
421.215	0.0372
421.535	0.0368
421.855	0.0369
422.174	0.0366
422.494	0.0363
422.814	0.0373
423.134	0.0373
423.453	0.0372
423.773	0.0374
424.092	0.0374
424.411	0.0371
424.731	0.0374
425.05	0.0372
425.369	0.0372
425.688	0.0377
426.007	0.0376
426.326	0.0374
426.644	0.0373
426.963	0.0378
427.282	0.0371
427.6	0.0373
427.919	0.0376
428.237	0.0374
428.556	0.0372
428.874	0.0376
429.192	0.0382
429.51	0.0382
429.828	0.0372
430.146	0.0376
430.464	0.0371
430.782	0.0376
431.1	0.0374
431.418	0.0377
431.735	0.0376
432.053	0.0378
432.37	0.0379
432.688	0.0375
433.005	0.0374
433.322	0.038
433.639	0.0378
433.957	0.0381
434.274	0.038
434.591	0.0383
434.907	0.037
435.224	0.0377
435.541	0.0378
435.858	0.0382
436.174	0.0384
436.491	0.0375
436.807	0.0365
437.124	0.0369
437.44	0.0384
437.756	0.0378
438.072	0.0386
438.388	0.0378
438.704	0.0376
439.02	0.0375
439.336	0.0368
439.652	0.0374
439.968	0.0368
440.283	0.0364
440.599	0.0362
440.914	0.0382
441.23	0.0376
441.545	0.0369
441.86	0.0369
442.175	0.0365
442.491	0.0367
442.806	0.0363
443.121	0.0367
443.435	0.0358
443.75	0.0368
444.065	0.0363
444.38	0.037
444.694	0.0373
445.009	0.0368
445.323	0.0365
445.638	0.0355
445.952	0.0361
446.266	0.0366
446.58	0.0366
446.894	0.0359
447.208	0.0362
447.522	0.0358
447.836	0.0361
448.15	0.0352
448.464	0.036
448.777	0.0353
449.091	0.0347
449.404	0.0355
449.718	0.0349
450.031	0.035
450.345	0.0345
450.658	0.0348
450.971	0.0352
451.284	0.0346
451.597	0.0337
451.91	0.034
452.223	0.0341
452.535	0.034
452.848	0.0341
453.161	0.0333
453.473	0.034
453.786	0.0333
454.098	0.0332
454.411	0.0344
454.723	0.0326
455.035	0.0325
455.347	0.0319
455.659	0.0329
455.971	0.0328
456.283	0.032
456.595	0.032
456.907	0.0321
457.218	0.0322
457.53	0.0315
457.841	0.0315
458.153	0.032
458.464	0.0322
458.776	0.0309
459.087	0.0312
459.398	0.0314
459.709	0.0309
460.02	0.0303
460.331	0.0299
460.642	0.03
460.953	0.0297
461.263	0.0292
461.574	0.0295
461.885	0.0293
462.195	0.0294
462.506	0.0296
462.816	0.029
463.126	0.0298
463.437	0.0297
463.747	0.0283
464.057	0.0275
464.367	0.0277
464.677	0.0276
464.987	0.0272
465.296	0.0271
465.606	0.0264
465.916	0.0273
466.225	0.0272
466.535	0.0269
466.844	0.0271
467.154	0.027
467.463	0.0262
467.772	0.0263
468.081	0.0258
468.39	0.025
468.699	0.0255
469.008	0.0252
469.317	0.0248
469.626	0.0243
469.935	0.0242
470.243	0.0244
470.552	0.0247
470.86	0.0237
471.169	0.024
471.477	0.0236
471.785	0.0237
472.093	0.0237
472.402	0.0232
472.71	0.0234
473.018	0.022
473.326	0.0216
473.633	0.0231
473.941	0.0221
474.249	0.0219
474.556	0.0224
474.864	0.0218
475.171	0.0215
475.479	0.0214
475.786	0.0208
476.094	0.0218
476.401	0.02
476.708	0.0206
477.015	0.0201
477.322	0.0203
477.629	0.0192
477.936	0.0203
478.242	0.0188
478.549	0.0196
478.856	0.0191
479.162	0.0187
479.469	0.0194
479.775	0.0184
480.081	0.019
480.388	0.0178
480.694	0.0181
481	0.0176
481.306	0.0179
481.612	0.0176
481.918	0.0174
482.224	0.0168
482.53	0.0167
482.835	0.0171
483.141	0.0159
483.446	0.0168
483.752	0.0159
484.057	0.0152
484.363	0.015
484.668	0.0159
484.973	0.0144
485.278	0.0147
485.583	0.0151
485.888	0.0141
486.193	0.0134
486.498	0.0136
486.803	0.0146
487.107	0.014
487.412	0.013
487.717	0.0131
488.021	0.0138
488.325	0.0142
488.63	0.0136
488.934	0.013
489.238	0.0132
489.542	0.0119
489.846	0.0124
490.15	0.0129
490.454	0.0122
490.758	0.0122
491.062	0.0115
491.366	0.0119
491.669	0.012
491.973	0.0115
492.276	0.0113
492.58	0.0109
492.883	0.0106
493.186	0.0094
493.489	0.011
493.792	0.0093
494.096	0.0099
494.399	0.0098
494.701	0.0098
495.004	0.0087
495.307	0.0095
495.61	0.0093
495.912	0.0098
496.215	0.0073
496.517	0.0076
496.82	0.0084
497.122	0.0078
497.424	0.0085
497.727	0.008
498.029	0.0071
498.331	0.0079
498.633	0.008
498.935	0.0076
499.237	0.0076
499.538	0.0067
499.84	0.0068
500.142	0.007
500.443	0.0064
500.745	0.0067
501.046	0.0062
501.348	0.0064
501.649	0.0057
501.95	0.0057
502.251	0.0056
502.552	0.0051
502.853	0.0053
503.154	0.0051
503.455	0.0052
503.756	0.0049
504.057	0.0056
504.357	0.0045
504.658	0.005
504.958	0.005
505.259	0.0052
505.559	0.0039
505.859	0.0036
506.16	0.0041
506.46	0.0044
506.76	0.0042
507.06	0.0037
507.36	0.0038
507.66	0.0038
507.96	0.0045
508.259	0.0028
508.559	0.0044
508.859	0.0032
509.158	0.0024
509.457	0.002
509.757	0.0039
510.056	0.0037
510.355	0.0022
510.655	0.0022
510.954	0.0029
511.253	0.0022
511.552	0.0027
511.851	0.0027
512.149	0.0008
512.448	0.0026
512.747	0.0025
513.045	0.0022
513.344	0.0017
513.642	0.0006
513.941	0.0023
514.239	0.0015
514.537	0.0014
514.836	0.0014
515.134	-0.0003
515.432	0.0033
515.73	0.0015
516.028	0.0011
516.326	0.0014
516.623	0.001
516.921	0.0004
517.219	0.0015
517.516	0.0013
517.814	0.0016
518.111	0.0009
518.409	0.0005
518.706	-0.0003
519.003	0.0019
519.3	0.0006
519.597	0.0004
519.894	0.0009
520.191	0.0011
520.488	0.0016
520.785	0.0001
521.082	0.0006
521.378	0.0002
521.675	0.0008
521.971	-0.001
522.268	0.0007
522.564	0.0005
522.861	0.0005
523.157	0.0013
523.453	0.0013
523.749	0.0004
524.045	-0.0001
524.341	0.0012
524.637	-0.0003
524.933	-0.0008
525.229	0.0008
525.524	-0.0014
525.82	-0.0004
526.115	-0.0011
526.411	0.0008
526.706	-0.0005
527.002	0.0011
527.297	-0.0017
527.592	0.0002
527.887	-0
528.182	0.0005
528.477	0.0003
528.772	-0.0003
529.067	-0.0004
529.362	-0.0003
529.657	-0.0002
529.951	-0.0007
530.246	-0.0001
530.54	0.0002
530.835	0
531.129	-0.0008
531.423	0.0005
531.718	-0.0002
532.012	-0.0006
532.306	-0.0001
532.6	-0.0015
532.894	-0.0005
533.188	-0.0001
533.482	0
533.775	-0.0003
534.069	-0.0009
534.363	-0.0018
534.656	-0.0025
534.95	-0.0004
535.243	-0.0012
535.536	-0.0006
535.83	-0.0012
536.123	-0.001
536.416	-0.0009
536.709	-0.0011
537.002	-0.0013
537.295	-0.0014
537.588	-0.0022
537.881	-0.002
538.173	-0.0017
538.466	-0.0016
538.759	-0.0016
539.051	-0.0009
539.344	-0.002
539.636	-0.001
539.928	-0.0006
540.22	-0.0011
540.513	-0.0003
540.805	-0.0014
541.097	-0.0011
541.389	-0.0014
541.681	-0.0001
541.972	-0.0008
542.264	0.0003
542.556	0.0002
542.847	0.0012
543.139	-0.0006
543.431	-0.0008
543.722	-0.0002
544.013	0
544.305	-0.0017
544.596	-0.0014
544.887	-0.0009
545.178	-0.0005
545.469	-0.002
545.76	0.0001
546.051	0
546.342	-0.0007
546.632	-0.0017
546.923	-0.0015
547.214	-0.0014
547.504	-0.0018
547.795	-0.0017
548.085	-0.0016
548.375	-0.0019
548.666	-0.0015
548.956	-0.0012
549.246	-0.0021
549.536	0.0002
549.826	-0.0007
550.116	-0.0007
550.406	-0.0013
550.695	-0.003
550.985	-0.0007
551.275	-0.0007
551.564	-0.0012
551.854	-0.0007
552.143	-0.0011
552.433	-0.0022
552.722	-0.0027
553.011	-0.0001
553.3	-0.0005
553.589	-0.0005
553.879	-0.0011
554.167	-0.0003
554.456	-0
554.745	0.0002
555.034	-0.002
555.323	-0.0003
555.611	-0.0009
555.9	-0.0005
556.188	-0.0017
556.477	-0.0011
556.765	-0.002
557.053	-0.0011
557.342	0.0001
557.63	-0.0006
557.918	0.0009
558.206	0.0007
558.494	0.0004
558.782	0.0001
559.069	0.0014
559.357	0.0018
559.645	0.0001
559.932	0.0001
560.22	-0.0006
560.507	-0.0012
560.795	-0.0007
561.082	-0.0019
561.37	0.0001
561.657	-0.0014
561.944	-0.001
562.231	-0.0011
562.518	0.0004
562.805	-0.0002
563.092	0.0004
563.379	-0.0002
563.665	0
563.952	-0.0002
564.239	0.0007
564.525	0
564.811	0.0018
565.098	0.0004
565.384	0.0013
565.67	0.001
565.957	0.0016
566.243	0.002
566.529	0.001
566.815	0.0005
567.101	0.0017
567.387	0.0002
567.672	-0.0001
567.958	0.0017
568.244	0.0005
568.529	0.0012
568.815	-0.0008
569.1	-0.001
569.386	-0.0011
569.671	-0.0004
569.956	-0.0001
570.242	0.0001
570.527	-0.0003
570.812	0.0002
571.097	-0.0003
571.382	-0.0007
571.666	0.0002
571.951	-0.0009
572.236	-0.0007
572.521	0.0004
572.805	-0.0004
573.09	-0.0006
573.374	-0.0017
573.659	-0.0009
573.943	-0.0003
574.227	-0.001
574.511	-0.0014
574.795	-0.0004
575.079	-0.0006
575.363	-0.0008
575.647	-0.0007
575.931	0
576.215	-0.0011
576.499	-0.0015
576.782	-0.0014
577.066	-0.0012
577.349	0.0002
577.633	-0.0013
577.916	-0.0014
578.2	-0.0009
578.483	-0.0014
578.766	0.0003
579.049	-0.0004
579.332	0.0004
579.615	-0.0002
579.898	-0.0012
580.181	0.0001
580.464	0.0006
580.746	0.0004
581.029	-0.001
581.312	-0.0015
581.594	-0.0025
581.877	-0.0014
582.159	-0.0016
582.441	-0.0016
582.724	-0.0013
583.006	-0
583.288	-0.0001
583.57	0.0002
583.852	0.001
584.134	-0.0003
584.416	-0.0009
584.697	-0.0005
584.979	-0.0018
585.261	-0.0025
585.542	-0.0026
585.824	-0.0014
586.105	-0.0021
586.387	-0.0012
586.668	-0.0009
586.949	-0.0003
587.231	-0.0009
587.512	-0.0006
587.793	-0.0004
588.074	-0.0012
588.355	-0.0002
588.636	-0.0017
588.916	-0.0016
589.197	-0.0006
589.478	-0.0001
589.758	-0.0001
590.039	-0.0006
590.319	0.0009
590.6	0.0014
590.88	0.0013
591.16	0.0012
591.441	0.001
591.721	-0.0003
592.001	-0.0006
592.281	-0.0005
592.561	0.0001
592.841	-0.0018
593.12	-0.003
593.4	-0.0017
593.68	-0.0024
593.959	-0.0019
594.239	-0.001
594.518	-0.0003
594.798	0.0005
595.077	-0.0008
595.356	-0.0009
595.636	-0.0006
595.915	0.0001
596.194	0.0006
596.473	0.0005
596.752	0.0006
597.031	-0.0003
597.31	-0.0002
597.588	-0.0011
597.867	-0.0006
598.146	-0.0007
598.424	-0.0007
598.703	-0.0005
598.981	-0.0031
599.259	-0.0015
599.538	-0.0012
599.816	-0.0003
600.094	-0.0014
600.372	-0.0019
600.65	-0.0015
600.928	-0.001
601.206	-0.0009
601.484	0.0002
601.762	0.0003
602.04	0.0001
602.317	0.0002
602.595	0.0003
602.872	0.001
603.15	0.001
603.427	-0.0015
603.704	-0.0017
603.982	-0.0006
604.259	-0.001
604.536	-0.0001
604.813	-0.0003
605.09	-0.0003
605.367	-0.0014
605.644	-0.0012
605.921	-0.0012
606.197	-0.0018
606.474	-0.0005
606.751	-0.0007
607.027	-0.0011
607.304	-0.0011
607.58	-0.001
607.856	-0.0013
608.133	-0.0014
608.409	0.0002
608.685	-0.0008
608.961	-0.0004
609.237	-0
609.513	-0.0002
609.789	-0.0004
610.065	-0.0005
610.341	-0.0006
610.616	0.001
610.892	0.0015
611.167	0.0015
611.443	-0
611.718	0.0002
611.994	-0.0001
612.269	0.0009
612.544	0.0005
612.819	-0.0002
613.095	-0.0002
613.37	0.0002
613.645	-0.0007
613.919	-0.0003
614.194	-0.0001
614.469	0.0009
614.744	-0.0001
615.019	-0.0009
615.293	-0.0007
615.568	-0.0006
615.842	0.0004
616.116	0.0009
616.391	0.0016
616.665	0.0008
616.939	0.0009
617.213	0.0008
617.488	0.0015
617.762	0.0003
618.035	0.0005
618.309	-0.0004
618.583	0.0015
618.857	0.0017
619.131	0.0019
619.404	0.0019
619.678	0.0022
619.951	0.0007
620.225	0.0004
620.498	0.0008
620.771	0.0016
621.045	0.0008
621.318	0.0004
621.591	-0.0003
621.864	-0.001
622.137	-0.002
622.41	-0.0012
622.683	0.0005
622.956	0.0007
623.228	0.0004
623.501	0.0011
623.774	0.0014
624.046	0.001
624.319	0.0002
624.591	0.0003
624.863	0.0003
625.136	0.0017
625.408	0.0023
625.68	0.0015
625.952	0.0022
626.224	0.0028
626.496	0.0031
626.768	0.002
627.04	0.0011
627.311	0.0008
627.583	0.0008
627.855	0.0021
628.126	0.0024
628.398	0.0035
628.669	0.004
628.941	0.0038
629.212	0.0032
629.483	0.0023
629.755	0.0016
630.026	0.0034
630.297	0.0041
630.568	0.0024
630.839	0.0033
631.11	0.0028
631.38	0.0036
631.651	0.0041
631.922	0.0035
632.192	0.003
632.463	0.0029
632.733	0.0026
633.004	0.0032
633.274	0.004
633.545	0.0041
633.815	0.0025
634.085	0.0012
634.355	0.0003
634.625	0.0009
634.895	0.0011
635.165	0.002
635.435	0.0002
635.705	0.001
635.974	0.0002
636.244	0.0009
636.514	0.0026
636.783	0.0019
637.053	0.0017
637.322	0.0021
637.591	0.0025
637.861	0.0008
638.13	0.0016
638.399	0.0015
638.668	0.0015
638.937	0.0006
639.206	0
639.475	0.0007
639.744	0.0013
640.013	0.0012
640.281	0.0017
640.55	0.0016
640.819	0.0023
641.087	0.0025
641.356	0.0026
641.624	0.0044
641.892	0.0045
642.161	0.0044
642.429	0.0032
642.697	0.002
642.965	0.0028
643.233	0.0018
643.501	0.002
643.769	0.0027
644.037	0.0021
644.305	0.0009
644.572	0.0019
644.84	0.0017
645.108	0.0004
645.375	0.0005
645.643	0.0009
645.91	0.002
646.177	0.0041
646.445	0.0031
646.712	0.0043
646.979	0.0044
647.246	0.0053
647.513	0.0052
647.78	0.0036
648.047	0.0029
648.314	0.0006
648.58	0.0011
648.847	0.0018
649.114	0.002
649.38	0.0022
649.647	0.0021
649.913	0.0023
650.18	0.0032
650.446	0.0026
650.712	0.0017
650.978	0.0019
651.245	0.0016
651.511	0.0026
651.777	0.0025
652.043	0.0025
652.309	0.0018
652.574	0.0041
652.84	0.0037
653.106	0.0032
653.371	0.004
653.637	0.0037
653.903	0.0034
654.168	0.0055
654.433	0.0053
654.699	0.0056
654.964	0.0051
655.229	0.0037
655.494	0.001
655.759	-0.0055
656.024	-0.0003
656.289	-0
656.554	0
656.819	0.0016
657.084	0.0019
657.349	0.0035
657.613	0.0026
657.878	0.0031
658.142	0.0015
658.407	0.0027
658.671	0.0036
658.936	0.0026
659.2	0.0036
659.464	0.0042
659.728	0.0037
659.992	0.0033
660.256	0.0035
660.52	0.0027
660.784	0.0027
661.048	0.0027
661.312	0.0028
661.575	0.0035
661.839	0.0033
662.103	0.0034
662.366	0.0032
662.63	0.0026
662.893	0.0023
663.156	0.0024
663.42	0.0008
663.683	0.0005
663.946	-0.0003
664.209	-0.0001
664.472	-0.001
664.735	0.0006
664.998	0.0018
665.261	0.0008
665.524	0.0012
665.786	0.0012
666.049	0.0017
666.312	0.0017
666.574	0.0018
666.837	0.0013
667.099	0.0017
667.361	0.0027
667.624	0.0017
667.886	0.0013
668.148	0.0008
668.41	0.001
668.672	0.0001
668.934	0.0018
669.196	0.0009
669.458	0.002
669.72	0.0025
669.982	0.0025
670.243	0.0033
670.505	0.0017
670.766	0.0029
671.028	0.0021
671.289	0.0015
671.551	0.0008
671.812	-0.0005
672.073	0.0014
672.334	0.0014
672.596	0.0006
672.857	0.0008
673.118	0.0019
673.379	0.0003
673.639	-0.0002
673.9	0.001
674.161	0.0004
674.422	-0.0001
674.682	0.0011
674.943	0.0016
675.203	0.0007
675.464	0.0003
675.724	-0.0012
675.985	-0.0007
676.245	-0.0005
676.505	-0.0006
676.765	0.0001
677.025	0.0012
677.285	0.0021
677.545	0.0022
677.805	0.0012
678.065	0.0008
678.325	0.002
678.585	0.0016
678.844	-0.0002
679.104	0.0009
679.363	-0.0011
679.623	-0.0003
679.882	-0.0001
680.142	0.0015
680.401	0.0007
680.66	0.0027
680.919	0.0033
681.178	0.0038
681.437	0.0028
681.696	0.0007
681.955	0.0022
682.214	0.0024
682.473	0.0009
682.732	0.0005
682.99	0.0012
683.249	0.0026
683.508	0.0015
683.766	0.0001
684.024	0.0003
684.283	0.0009
684.541	0.0001
684.799	0.0011
685.058	0.0013
685.316	0.0003
685.574	-0.0003
685.832	0.0004
686.09	0.0009
686.348	-0.0001
686.606	-0
686.863	0.0006
687.121	0.0019
687.379	0.0026
687.636	0.0013
687.894	0.0024
688.151	0.0021
688.409	0.002
688.666	0.0001
688.923	-0.0001
689.181	0.0002
689.438	0.0007
689.695	-0.0003
689.952	-0.0003
690.209	0.0002
690.466	-0
690.723	0.0012
690.979	0.0017
691.236	0.0005
691.493	0.001
691.75	0.0015
692.006	0.0019
692.263	0.001
692.519	0.0012
692.775	0.0016
693.032	0.0019
693.288	0.0015
693.544	0.001
693.8	0.0012
694.056	0.0013
694.313	0.0015
694.568	0.0017
694.824	0.0016
695.08	0.0009
695.336	-0.001
695.592	-0.0014
695.847	0.0009
696.103	0.0018
696.359	0.0014
696.614	0.0007
696.869	-0.0005
697.125	-0.0026
697.38	-0.0011
697.635	-0.0009
697.891	0.0005
698.146	0.0018
698.401	0.0021
698.656	0.0013
698.911	0.0023
699.166	0.0025
699.42	0.0036
699.675	0.0031
699.93	0.0026
700.185	0.0021
700.439	0.0027
700.694	0.0024
700.948	0.0024
701.203	0.0014
701.457	0.0015
701.711	0.0009
701.965	0.0009
702.22	0
702.474	-0.0004
702.728	-0.0007
702.982	-0.0009
703.236	0.0006
703.49	0.001
703.743	0.0002
703.997	0.0015
704.251	0.001
704.504	0.0011
704.758	0.0006
705.012	0.0019
705.265	0.0026
705.518	0.0033
705.772	0.0029
706.025	0.0031
706.278	0.0015
706.531	0.0007
706.785	-0.0003
707.038	-0.0013
707.291	0.0004
707.543	-0.0006
707.796	-0.0006
708.049	-0.0009
708.302	-0.0024
708.555	-0.0018
708.807	-0.0005
709.06	-0.0012
709.312	-0.0008
709.565	-0.0006
709.817	-0.0016
710.069	-0.0007
710.322	-0.0012
710.574	-0.002
710.826	-0.0023
711.078	-0.0018
711.33	-0.0013
711.582	-0.0025
711.834	-0.002
712.086	-0.0023
712.338	-0.0019
712.59	-0.0017
712.841	-0.0041
713.093	-0.0032
713.344	-0.0027
713.596	-0.0029
713.847	-0.0011
714.099	-0.0011
714.35	-0.002
714.601	-0.0011
714.853	-0.0005
715.104	-0.0007
715.355	-0.0006
715.606	-0.0006
715.857	0.0005
716.108	-0
716.359	0.0006
716.609	0.0002
716.86	0.0003
717.111	0.0003
717.361	0.0004
717.612	0.0021
717.863	0.0023
718.113	0.0029
718.363	0.0008
718.614	0.0031
718.864	0.0033
719.114	0.003
719.364	0.0031
719.614	0.0024
719.865	0.004
720.114	0.0043
720.364	0.0049
720.614	0.0038
720.864	0.0033
721.114	0.0033
721.364	0.0033
721.613	0.0027
721.863	0.0018
722.112	0.0021
722.362	0.0014
722.611	0.0012
722.86	0.0008
723.11	0.0002
723.359	0.0005
723.608	-0.0005
723.857	0.0005
724.106	0.0005
724.355	0.0015
724.604	0.0015
724.853	0.0015
725.102	0.0004
725.351	0.0002
725.599	-0.0012
725.848	-0.0005
726.097	0.0004
726.345	0.0002
726.594	-0.0016
726.842	-0.0008
727.09	-0.0021
727.339	-0.0031
727.587	-0.0027
727.835	-0.0025
728.083	-0.0011
728.331	-0.0023
728.579	-0.0008
728.827	-0.0001
729.075	0.0003
729.323	-0.0004
729.571	-0.0001
729.818	0.0002
730.066	-0.0008
730.314	-0
730.561	0.0017
730.809	0.0011
731.056	-0.0011
731.303	0.0013
731.551	0.0007
731.798	0.0007
732.045	0.0009
732.292	0.0033
732.539	0.0023
732.786	0.0025
733.033	0.0013
733.28	0.0017
733.527	0.0019
733.774	-0.0008
734.021	-0.0017
734.267	-0.002
734.514	-0.0029
734.76	-0.0025
735.007	-0.0011
735.253	-0.0019
735.5	-0.0026
735.746	-0.0027
735.992	-0.0007
736.238	-0.001
736.485	0.0005
736.731	0.0011
736.977	-0.0004
737.223	0.0005
737.469	0.0007
737.715	0.0023
737.96	0.0016
738.206	0.0006
738.452	0.0017
738.697	0.0012
738.943	0.0006
739.189	-0.0004
739.434	-0.0003
739.679	0.0001
739.925	0.0009
740.17	-0.0004
740.415	-0.0003
740.66	-0.0013
740.906	-0.0015
741.151	-0.0011
741.396	-0.0021
741.641	-0.002
741.886	-0.002
742.13	-0.0007
742.375	-0.0006
742.62	-0.0011
742.865	-0.0022
743.109	0.0014
743.354	0.0014
743.598	0.0029
743.843	0.0027
744.087	0.0039
744.331	0.0046
744.576	0.0056
744.82	0.0062
745.064	0.0064
745.308	0.0068
745.552	0.0061
745.796	0.0044
746.04	0.0043
746.284	0.0032
746.528	0.0045
746.771	0.0061
747.015	0.0064
747.259	0.0047
747.502	0.0036
747.746	0.0034
747.989	0.005
748.233	0.0038
748.476	0.0053
748.719	0.0059
748.963	0.0067
749.206	0.007
749.449	0.0038
749.692	0.0048
749.935	0.005
750.178	0.0043
750.421	0.0034
750.664	0.0045
750.906	0.0054
751.149	0.0057
751.392	0.0046
751.635	0.0027
751.877	0.0031
752.12	0.0024
752.362	0.0024
752.604	0.0026
752.847	0.0038
753.089	0.0053
753.331	0.0055
753.573	0.0031
753.816	0.0025
754.058	0.0015
754.3	0.0008
754.542	0.0016
754.783	-0.0006
755.025	0.0002
755.267	0.0005
755.509	0.0001
755.75	-0.0009
755.992	0.0003
756.234	0.0002
756.475	-0.0006
756.716	-0.0014
756.958	-0.0018
757.199	-0.0007
757.44	0.0003
757.682	-0.0015
757.923	0.0007
758.164	0.0026
758.405	0.0022
758.646	0.004
758.887	0.0041
759.128	0.0036
759.369	0.0029
759.609	0.0029
759.85	0.0031
760.091	0.0039
760.331	0.0031
760.572	0.0012
760.812	0.0001
761.053	-0.0003
761.293	0.0004
761.533	0.0007
761.774	0.0028
762.014	0.0034
762.254	0.0025
762.494	0.0007
762.734	0.001
762.974	0.0006
763.214	0.0004
763.454	0.0005
763.694	-0.0007
763.933	-0.0008
764.173	-0.0034
764.413	-0.004
764.652	-0.0046
764.892	-0.003
765.131	-0.0034
765.371	-0.0025
765.61	-0.0023
765.849	-0.0017
766.089	-0.0011
766.328	0.0003
766.567	0.0001
766.806	-0.0003
767.045	-0
767.284	-0.0009
767.523	-0.0015
767.762	-0.0014
768.001	-0.0018
768.239	-0.0016
768.478	-0.0013
768.717	-0.0003
768.955	-0.0007
769.194	-0.0002
769.432	0.0012
769.671	0.0019
769.909	0.0023
770.148	0.0023
770.386	0.0035
770.624	0.0049
770.862	0.0042
771.1	0.0049
771.338	0.0046
771.576	0.0032
771.814	0.0047
772.052	0.0047
772.29	0.0058
772.528	0.0051
772.765	0.0063
773.003	0.006
773.24	0.0073
773.478	0.0052
773.716	0.0054
773.953	0.005
774.19	0.0056
774.428	0.0062
774.665	0.0066
774.902	0.0068
775.139	0.0055
775.376	0.0056
775.613	0.0052
775.85	0.0043
776.087	0.0034
776.324	0.004
776.561	0.0032
776.798	0.0023
777.034	0.0029
777.271	0.0032
777.508	0.0042
777.744	0.0043
777.981	0.0047
778.217	0.0058
778.454	0.0048
778.69	0.0038
778.926	0.0022
779.162	0.0026
779.399	0.0028
779.635	0.0025
779.871	0.0032
780.107	0.0034
780.343	0.0032
780.579	0.0035
780.814	0.0031
781.05	0.0026
781.286	0.0013
781.522	0.0021
781.757	0.0027
781.993	0.0031
782.228	0.003
782.464	0.0037
782.699	0.002
782.934	0.0007
783.17	0.0014
783.405	0.0018
783.64	0.001
783.875	0.0008
784.11	0.0014
784.345	0.0035
784.58	0.0031
784.815	0.0041
785.05	0.0023
785.285	0.0012
785.52	0.0008
785.754	0.0003
785.989	0.0001
786.223	-0.0014
786.458	-0.0014
786.692	-0.0001
786.927	0.0006
787.161	0.0013
787.396	0.001
787.63	0.0006
787.864	-0.001
788.098	-0.0014
788.332	-0.0025
788.566	-0.0013
788.8	-0.0016
789.034	-0.0012
789.268	-0.001
789.502	-0.0001
789.736	0.0007
789.969	0.0001
790.203	0.0005
790.437	-0.0013
790.67	-0.0012
790.904	-0.0024
791.137	-0.0021
791.37	-0.0022
791.604	-0.0049
791.837	-0.0045
792.07	-0.0028
792.303	-0.0032
792.537	-0.0024
792.77	-0.0022
793.003	-0.0013
793.236	-0.0017
793.469	-0.0012
793.701	-0.0002
793.934	-0.0003
794.167	-0.0006
794.4	-0.0009
794.632	0.0012
794.865	0.0021
795.097	0.0019
795.33	0.0003
795.562	0.001
795.795	0.0027
796.027	0.0028
796.259	0.0025
796.491	0.0023
796.724	0.003
796.956	0.0036
797.188	0.0034
797.42	0.0028
797.652	0.0018
797.883	0.0029
798.115	0.0047
798.347	0.0043
798.579	0.0064
798.81	0.0068
799.042	0.0067
799.274	0.0054
799.505	0.0047
799.737	0.004
799.968	0.0032
800.199	0.0022
800.431	0.0016
800.662	0.0013
800.893	0.0027
801.124	0.0021
801.355	0.0012
801.586	0.0017
801.817	0.0015
802.048	0.0006
802.279	0.001
802.51	0.002
802.741	0.0032
802.971	0.0023
803.202	0.0034
803.433	0.0033
803.663	0.0017
803.894	0.0015
804.124	0.0009
804.354	0.002
804.585	0.002
804.815	0.0032
805.045	0.0016
805.275	0.0016
805.506	-0.0526
805.736	0.042
805.966	-0.0315
806.196	0.0356
