Data from 03 0.4 mM K2Cr2O7 0.25 M BQDS 1 M H2SO4 5 min_Absorbance_0240.txt Node
Date: Wed Dec 15 13:30:13 EST 2021
User: kwabilab-user
Spectrometer: HDX00518
Trigger mode: 0
Integration Time (sec): 5.000000E-2
Scans to average: 50
Nonlinearity correction enabled: false
Boxcar width: 0
Storing dark spectrum: false
XAxis mode: Wavelengths
Number of Pixels in Spectrum: 2068
>>>>>Begin Spectral Data<<<<<
195.27	-0.2229
195.642	-0.0474
196.014	-0.2285
196.386	-0.1167
196.758	-0.1062
197.129	-0.0333
197.501	-0.04
197.872	0.0082
198.244	0.0099
198.615	0.0192
198.986	0.009
199.357	0.0115
199.728	0.0177
200.099	0.0015
200.47	0.0165
200.841	0.012
201.212	0.0141
201.582	0.0097
201.953	0.0199
202.323	0.0058
202.694	0.0002
203.064	0.0104
203.434	-0.0088
203.804	-0.0029
204.174	-0.0061
204.544	0.0116
204.914	0.0054
205.284	-0.0063
205.653	-0.0138
206.023	-0.0188
206.393	0.0143
206.762	-0.0009
207.131	0.0115
207.501	0.0152
207.87	0.0179
208.239	0.0037
208.608	0.0019
208.977	-0.0111
209.346	-0.0232
209.715	0.0183
210.083	0.0036
210.452	-0.0099
210.82	-0.0016
211.189	-0.0166
211.557	0.0152
211.925	0.0005
212.294	-0.0212
212.662	-0.002
213.03	0.0114
213.398	0.005
213.766	-0.0013
214.133	-0.006
214.501	0.0009
214.869	0.006
215.236	-0.0019
215.604	0.0056
215.971	0.0231
216.338	0.0078
216.705	0.0156
217.072	0.0124
217.439	0.0219
217.806	0.0321
218.173	0.0312
218.54	0.039
218.907	0.0373
219.273	0.0419
219.64	0.0615
220.006	0.0539
220.373	0.0854
220.739	0.084
221.105	0.1271
221.471	0.1121
221.837	0.143
222.203	0.1658
222.569	0.149
222.935	0.1843
223.3	0.2068
223.666	0.22
224.031	0.2398
224.397	0.2723
224.762	0.2911
225.127	0.3052
225.493	0.3385
225.858	0.3607
226.223	0.3797
226.588	0.3869
226.952	0.4172
227.317	0.4528
227.682	0.4701
228.046	0.4522
228.411	0.4834
228.775	0.4968
229.14	0.5099
229.504	0.517
229.868	0.5296
230.232	0.537
230.596	0.5663
230.96	0.5593
231.324	0.5515
231.688	0.5544
232.052	0.5749
232.415	0.5824
232.779	0.5847
233.142	0.589
233.505	0.5939
233.869	0.5996
234.232	0.5964
234.595	0.5835
234.958	0.5873
235.321	0.594
235.684	0.5884
236.047	0.5828
236.409	0.579
236.772	0.5795
237.134	0.5826
237.497	0.5676
237.859	0.5871
238.222	0.5754
238.584	0.5651
238.946	0.5571
239.308	0.5577
239.67	0.5624
240.032	0.5577
240.393	0.5473
240.755	0.5487
241.117	0.5453
241.478	0.5404
241.84	0.5422
242.201	0.5347
242.562	0.5314
242.924	0.5254
243.285	0.5202
243.646	0.5219
244.007	0.5185
244.368	0.5123
244.728	0.5121
245.089	0.5131
245.45	0.5089
245.81	0.5006
246.171	0.5011
246.531	0.4988
246.891	0.4972
247.252	0.4919
247.612	0.4984
247.972	0.4899
248.332	0.4899
248.692	0.4889
249.051	0.4799
249.411	0.4891
249.771	0.4891
250.13	0.4814
250.49	0.4829
250.849	0.4786
251.208	0.4766
251.568	0.4788
251.927	0.4741
252.286	0.4815
252.645	0.4721
253.004	0.4728
253.363	0.4724
253.721	0.4739
254.08	0.4714
254.439	0.468
254.797	0.4656
255.155	0.4605
255.514	0.4667
255.872	0.4661
256.23	0.4629
256.588	0.4666
256.946	0.4632
257.304	0.4595
257.662	0.464
258.02	0.459
258.377	0.4573
258.735	0.4567
259.093	0.4538
259.45	0.4565
259.807	0.4568
260.165	0.4557
260.522	0.4548
260.879	0.4461
261.236	0.4479
261.593	0.4481
261.95	0.4493
262.306	0.4495
262.663	0.4477
263.02	0.4393
263.376	0.4377
263.733	0.4377
264.089	0.4388
264.445	0.4381
264.802	0.4325
265.158	0.4309
265.514	0.4296
265.87	0.4286
266.226	0.4278
266.581	0.4259
266.937	0.4263
267.293	0.4239
267.648	0.4199
268.004	0.4167
268.359	0.4148
268.714	0.4156
269.07	0.4108
269.425	0.4115
269.78	0.408
270.135	0.4064
270.49	0.4027
270.844	0.4032
271.199	0.3991
271.554	0.3946
271.908	0.3938
272.263	0.394
272.617	0.3915
272.972	0.3871
273.326	0.385
273.68	0.3817
274.034	0.3821
274.388	0.3836
274.742	0.3786
275.096	0.3762
275.45	0.3759
275.803	0.369
276.157	0.3672
276.51	0.3625
276.864	0.3602
277.217	0.3636
277.571	0.3571
277.924	0.3524
278.277	0.3519
278.63	0.3443
278.983	0.3452
279.336	0.3398
279.688	0.3361
280.041	0.3348
280.394	0.3283
280.746	0.3275
281.099	0.3253
281.451	0.3233
281.803	0.3195
282.156	0.3184
282.508	0.313
282.86	0.3076
283.212	0.3071
283.564	0.301
283.916	0.2994
284.267	0.2975
284.619	0.2939
284.971	0.2911
285.322	0.2901
285.673	0.2845
286.025	0.2823
286.376	0.28
286.727	0.2747
287.078	0.2721
287.429	0.2696
287.78	0.2665
288.131	0.2646
288.482	0.2604
288.833	0.2576
289.183	0.2541
289.534	0.2504
289.884	0.2468
290.235	0.2453
290.585	0.2421
290.935	0.2385
291.285	0.2355
291.635	0.2321
291.985	0.2309
292.335	0.2283
292.685	0.2236
293.035	0.22
293.384	0.2182
293.734	0.2138
294.083	0.2102
294.433	0.2087
294.782	0.2066
295.131	0.202
295.48	0.2002
295.829	0.1985
296.179	0.194
296.527	0.1915
296.876	0.1897
297.225	0.185
297.574	0.1836
297.922	0.1802
298.271	0.1787
298.619	0.1745
298.968	0.1735
299.316	0.1705
299.664	0.169
300.012	0.1659
300.36	0.1622
300.708	0.1604
301.056	0.1582
301.404	0.1571
301.752	0.1541
302.099	0.1516
302.447	0.15
302.794	0.1475
303.142	0.1456
303.489	0.1443
303.836	0.142
304.183	0.14
304.531	0.1387
304.878	0.1363
305.224	0.1352
305.571	0.1332
305.918	0.1319
306.265	0.1287
306.611	0.1291
306.958	0.1294
307.304	0.1264
307.651	0.1255
307.997	0.1241
308.343	0.1232
308.689	0.1224
309.035	0.122
309.381	0.1201
309.727	0.1196
310.073	0.1189
310.419	0.1184
310.764	0.1173
311.11	0.1164
311.455	0.1159
311.801	0.1155
312.146	0.1142
312.491	0.1148
312.837	0.1142
313.182	0.1128
313.527	0.1129
313.872	0.1129
314.216	0.1129
314.561	0.1124
314.906	0.1122
315.251	0.1125
315.595	0.112
315.94	0.1122
316.284	0.1118
316.628	0.1128
316.972	0.1122
317.317	0.1127
317.661	0.1127
318.005	0.112
318.348	0.1129
318.692	0.1132
319.036	0.1138
319.38	0.1144
319.723	0.1144
320.067	0.1158
320.41	0.1152
320.754	0.1159
321.097	0.1157
321.44	0.1172
321.783	0.118
322.126	0.1182
322.469	0.1188
322.812	0.1196
323.155	0.1197
323.498	0.1209
323.84	0.1215
324.183	0.1222
324.525	0.1227
324.868	0.1244
325.21	0.1252
325.552	0.1255
325.894	0.1263
326.236	0.1265
326.578	0.1277
326.92	0.129
327.262	0.1292
327.604	0.1302
327.946	0.132
328.287	0.1323
328.629	0.1335
328.97	0.1336
329.312	0.1349
329.653	0.1359
329.994	0.1374
330.335	0.138
330.676	0.1394
331.017	0.1399
331.358	0.141
331.699	0.1426
332.04	0.1435
332.38	0.144
332.721	0.1448
333.061	0.146
333.402	0.1477
333.742	0.1476
334.083	0.1483
334.423	0.1499
334.763	0.1509
335.103	0.1514
335.443	0.1528
335.783	0.1537
336.123	0.1536
336.462	0.1545
336.802	0.1558
337.141	0.1569
337.481	0.1575
337.82	0.1582
338.16	0.159
338.499	0.1596
338.838	0.1606
339.177	0.1613
339.516	0.1621
339.855	0.1633
340.194	0.1631
340.533	0.1645
340.872	0.1643
341.21	0.1658
341.549	0.1662
341.887	0.1664
342.226	0.1667
342.564	0.1673
342.902	0.1683
343.24	0.1683
343.578	0.1686
343.916	0.1684
344.254	0.1694
344.592	0.1694
344.93	0.1695
345.268	0.1692
345.605	0.1694
345.943	0.1698
346.28	0.1701
346.618	0.1702
346.955	0.1705
347.292	0.1711
347.629	0.1709
347.966	0.1706
348.303	0.1708
348.64	0.1711
348.977	0.1708
349.314	0.1712
349.65	0.1705
349.987	0.1714
350.324	0.171
350.66	0.171
350.996	0.1706
351.333	0.1705
351.669	0.1698
352.005	0.1697
352.341	0.1685
352.677	0.1682
353.013	0.1675
353.349	0.1676
353.685	0.1655
354.02	0.1657
354.356	0.1649
354.691	0.1641
355.027	0.1645
355.362	0.1624
355.697	0.1622
356.033	0.1622
356.368	0.1616
356.703	0.1606
357.038	0.1599
357.373	0.1587
357.707	0.1589
358.042	0.158
358.377	0.1569
358.711	0.1566
359.046	0.1558
359.38	0.1556
359.715	0.1554
360.049	0.1539
360.383	0.152
360.717	0.1511
361.051	0.1509
361.385	0.1504
361.719	0.1492
362.053	0.1486
362.387	0.1469
362.72	0.1458
363.054	0.1452
363.387	0.1437
363.721	0.1432
364.054	0.1416
364.387	0.1398
364.721	0.1388
365.054	0.1379
365.387	0.1361
365.72	0.1352
366.053	0.1346
366.385	0.1327
366.718	0.1321
367.051	0.1308
367.383	0.1301
367.716	0.1297
368.048	0.1281
368.381	0.1279
368.713	0.1262
369.045	0.126
369.377	0.1251
369.709	0.1233
370.041	0.123
370.373	0.1218
370.705	0.1206
371.037	0.1201
371.368	0.1191
371.7	0.1181
372.031	0.1163
372.363	0.1149
372.694	0.1146
373.025	0.113
373.356	0.1115
373.688	0.1101
374.019	0.1092
374.35	0.1069
374.68	0.1058
375.011	0.1043
375.342	0.1031
375.673	0.102
376.003	0.1001
376.334	0.0996
376.664	0.0986
376.995	0.0974
377.325	0.096
377.655	0.0944
377.985	0.0934
378.315	0.0927
378.645	0.0921
378.975	0.0913
379.305	0.0893
379.635	0.0893
379.964	0.0879
380.294	0.0878
380.623	0.0867
380.953	0.0848
381.282	0.085
381.611	0.084
381.941	0.0837
382.27	0.0825
382.599	0.0816
382.928	0.0803
383.257	0.0792
383.585	0.0782
383.914	0.077
384.243	0.0759
384.571	0.0754
384.9	0.0742
385.228	0.0723
385.557	0.0716
385.885	0.0702
386.213	0.0698
386.541	0.0685
386.869	0.0679
387.197	0.066
387.525	0.0655
387.853	0.0641
388.181	0.0629
388.508	0.0625
388.836	0.0612
389.164	0.0603
389.491	0.06
389.818	0.0587
390.146	0.058
390.473	0.0571
390.8	0.0569
391.127	0.0553
391.454	0.0547
391.781	0.0539
392.108	0.0538
392.435	0.0525
392.761	0.0525
393.088	0.0514
393.415	0.0516
393.741	0.0514
394.067	0.0508
394.394	0.0499
394.72	0.049
395.046	0.0477
395.372	0.0479
395.698	0.0467
396.024	0.0457
396.35	0.0462
396.676	0.045
397.001	0.0448
397.327	0.0437
397.653	0.0427
397.978	0.0423
398.303	0.0414
398.629	0.0411
398.954	0.041
399.279	0.041
399.604	0.0399
399.929	0.0398
400.254	0.0386
400.579	0.0378
400.904	0.0373
401.229	0.0376
401.553	0.0376
401.878	0.0374
402.202	0.0374
402.527	0.0362
402.851	0.0365
403.175	0.035
403.5	0.0346
403.824	0.0342
404.148	0.0349
404.472	0.0342
404.796	0.0343
405.119	0.0339
405.443	0.0337
405.767	0.0328
406.09	0.0331
406.414	0.0332
406.737	0.0337
407.061	0.0332
407.384	0.0329
407.707	0.0329
408.03	0.0325
408.353	0.0319
408.676	0.0321
408.999	0.0321
409.322	0.0316
409.645	0.0312
409.968	0.0323
410.29	0.0319
410.613	0.0322
410.935	0.0312
411.258	0.0319
411.58	0.0305
411.902	0.031
412.224	0.031
412.546	0.0309
412.868	0.0318
413.19	0.0305
413.512	0.0315
413.834	0.031
414.156	0.0311
414.477	0.03
414.799	0.0313
415.121	0.0301
415.442	0.0303
415.763	0.0307
416.085	0.0309
416.406	0.0304
416.727	0.0307
417.048	0.0309
417.369	0.0311
417.69	0.0297
418.011	0.0304
418.331	0.031
418.652	0.0306
418.973	0.0305
419.293	0.0298
419.614	0.0302
419.934	0.031
420.254	0.0304
420.574	0.0292
420.895	0.0296
421.215	0.0297
421.535	0.0303
421.855	0.0291
422.174	0.0292
422.494	0.0299
422.814	0.03
423.134	0.0304
423.453	0.0307
423.773	0.0303
424.092	0.0305
424.411	0.0305
424.731	0.0299
425.05	0.0306
425.369	0.0302
425.688	0.0305
426.007	0.0304
426.326	0.0312
426.644	0.0298
426.963	0.0299
427.282	0.0305
427.6	0.03
427.919	0.0301
428.237	0.031
428.556	0.0306
428.874	0.0301
429.192	0.03
429.51	0.03
429.828	0.0298
430.146	0.0298
430.464	0.0297
430.782	0.0306
431.1	0.0292
431.418	0.0298
431.735	0.0295
432.053	0.0299
432.37	0.0302
432.688	0.0292
433.005	0.0296
433.322	0.0305
433.639	0.0307
433.957	0.0304
434.274	0.03
434.591	0.0307
434.907	0.0298
435.224	0.03
435.541	0.0302
435.858	0.0303
436.174	0.0306
436.491	0.0298
436.807	0.0296
437.124	0.0297
437.44	0.03
437.756	0.0306
438.072	0.0293
438.388	0.0296
438.704	0.0294
439.02	0.0294
439.336	0.0292
439.652	0.0297
439.968	0.0294
440.283	0.0296
440.599	0.03
440.914	0.0293
441.23	0.0294
441.545	0.0292
441.86	0.0297
442.175	0.0302
442.491	0.0291
442.806	0.0285
443.121	0.0284
443.435	0.0283
443.75	0.0284
444.065	0.0291
444.38	0.0285
444.694	0.0281
445.009	0.0287
445.323	0.0291
445.638	0.0277
445.952	0.0277
446.266	0.0273
446.58	0.0272
446.894	0.0286
447.208	0.0276
447.522	0.027
447.836	0.0273
448.15	0.028
448.464	0.0269
448.777	0.0274
449.091	0.0274
449.404	0.027
449.718	0.0272
450.031	0.0268
450.345	0.0271
450.658	0.0276
450.971	0.0268
451.284	0.0259
451.597	0.0268
451.91	0.0262
452.223	0.0264
452.535	0.0265
452.848	0.026
453.161	0.0262
453.473	0.026
453.786	0.0255
454.098	0.0264
454.411	0.0264
454.723	0.0266
455.035	0.0256
455.347	0.0252
455.659	0.0258
455.971	0.0266
456.283	0.0262
456.595	0.0262
456.907	0.0263
457.218	0.0257
457.53	0.0245
457.841	0.0249
458.153	0.0249
458.464	0.0247
458.776	0.025
459.087	0.0245
459.398	0.0243
459.709	0.0239
460.02	0.0248
460.331	0.0245
460.642	0.0247
460.953	0.0236
461.263	0.0238
461.574	0.0235
461.885	0.0246
462.195	0.0234
462.506	0.0233
462.816	0.024
463.126	0.0227
463.437	0.023
463.747	0.0225
464.057	0.0218
464.367	0.0214
464.677	0.0218
464.987	0.0221
465.296	0.0209
465.606	0.021
465.916	0.0205
466.225	0.0211
466.535	0.0214
466.844	0.0223
467.154	0.0216
467.463	0.0214
467.772	0.0212
468.081	0.0205
468.39	0.0214
468.699	0.0209
469.008	0.0213
469.317	0.0211
469.626	0.0209
469.935	0.0197
470.243	0.0207
470.552	0.0204
470.86	0.0207
471.169	0.02
471.477	0.0201
471.785	0.0192
472.093	0.0192
472.402	0.0187
472.71	0.0181
473.018	0.0187
473.326	0.0186
473.633	0.0194
473.941	0.0184
474.249	0.0185
474.556	0.0179
474.864	0.0182
475.171	0.0176
475.479	0.0175
475.786	0.0185
476.094	0.0174
476.401	0.0174
476.708	0.0174
477.015	0.0169
477.322	0.016
477.629	0.0157
477.936	0.017
478.242	0.0159
478.549	0.0155
478.856	0.0164
479.162	0.0159
479.469	0.0157
479.775	0.016
480.081	0.015
480.388	0.0144
480.694	0.0153
481	0.0146
481.306	0.0143
481.612	0.0154
481.918	0.0157
482.224	0.0156
482.53	0.015
482.835	0.015
483.141	0.0152
483.446	0.0148
483.752	0.0144
484.057	0.0135
484.363	0.0132
484.668	0.0137
484.973	0.0132
485.278	0.013
485.583	0.0124
485.888	0.0122
486.193	0.0112
486.498	0.013
486.803	0.0126
487.107	0.0115
487.412	0.011
487.717	0.0118
488.021	0.0129
488.325	0.0119
488.63	0.0119
488.934	0.0113
489.238	0.011
489.542	0.0113
489.846	0.0117
490.15	0.0111
490.454	0.0122
490.758	0.011
491.062	0.0108
491.366	0.0102
491.669	0.0103
491.973	0.01
492.276	0.0103
492.58	0.0099
492.883	0.011
493.186	0.0097
493.489	0.0107
493.792	0.0088
494.096	0.0091
494.399	0.0093
494.701	0.0089
495.004	0.0089
495.307	0.0087
495.61	0.009
495.912	0.0094
496.215	0.0089
496.517	0.0086
496.82	0.0087
497.122	0.0088
497.424	0.0087
497.727	0.0086
498.029	0.0083
498.331	0.0087
498.633	0.0084
498.935	0.0082
499.237	0.0088
499.538	0.0077
499.84	0.0081
500.142	0.0076
500.443	0.0079
500.745	0.0077
501.046	0.0076
501.348	0.0065
501.649	0.0066
501.95	0.0068
502.251	0.0067
502.552	0.0064
502.853	0.0071
503.154	0.0077
503.455	0.0059
503.756	0.0066
504.057	0.0067
504.357	0.0059
504.658	0.0062
504.958	0.0056
505.259	0.0057
505.559	0.0052
505.859	0.0054
506.16	0.0052
506.46	0.0059
506.76	0.0054
507.06	0.0045
507.36	0.0053
507.66	0.0067
507.96	0.0064
508.259	0.0056
508.559	0.0053
508.859	0.0054
509.158	0.0049
509.457	0.0044
509.757	0.0041
510.056	0.0048
510.355	0.0054
510.655	0.0041
510.954	0.0043
511.253	0.0051
511.552	0.0049
511.851	0.0052
512.149	0.0044
512.448	0.0038
512.747	0.0044
513.045	0.0046
513.344	0.0046
513.642	0.0049
513.941	0.0048
514.239	0.0032
514.537	0.0045
514.836	0.0045
515.134	0.0049
515.432	0.0043
515.73	0.004
516.028	0.0035
516.326	0.003
516.623	0.0037
516.921	0.0033
517.219	0.0045
517.516	0.0034
517.814	0.0041
518.111	0.0032
518.409	0.0039
518.706	0.0036
519.003	0.0027
519.3	0.0026
519.597	0.0036
519.894	0.0029
520.191	0.005
520.488	0.0039
520.785	0.0037
521.082	0.0041
521.378	0.0041
521.675	0.0027
521.971	0.0032
522.268	0.0034
522.564	0.0038
522.861	0.0051
523.157	0.0031
523.453	0.0043
523.749	0.0036
524.045	0.0025
524.341	0.0033
524.637	0.0031
524.933	0.0035
525.229	0.0032
525.524	0.0025
525.82	0.0032
526.115	0.003
526.411	0.0027
526.706	0.0026
527.002	0.0031
527.297	0.001
527.592	0.0034
527.887	0.0018
528.182	0.0022
528.477	0.0033
528.772	0.0017
529.067	0.0026
529.362	0.0038
529.657	0.0035
529.951	0.0029
530.246	0.0025
530.54	0.0021
530.835	0.0029
531.129	0.0027
531.423	0.0027
531.718	0.0024
532.012	0.003
532.306	0.0037
532.6	0.0026
532.894	0.0022
533.188	0.0025
533.482	0.0024
533.775	0.0024
534.069	0.0032
534.363	0.0023
534.656	0.0019
534.95	0.0028
535.243	0.0025
535.536	0.002
535.83	0.0022
536.123	0.0024
536.416	0.0017
536.709	0.0029
537.002	0.0037
537.295	0.0029
537.588	0.0023
537.881	0.0026
538.173	0.0032
538.466	0.0023
538.759	0.0022
539.051	0.0039
539.344	0.0036
539.636	0.0025
539.928	0.0034
540.22	0.0019
540.513	0.0026
540.805	0.0027
541.097	0.0032
541.389	0.002
541.681	0.0034
541.972	0.0017
542.264	0.0031
542.556	0.0029
542.847	0.0017
543.139	0.0034
543.431	0.0019
543.722	0.0011
544.013	0.0024
544.305	0.0016
544.596	0.0014
544.887	0.0024
545.178	0.0031
545.469	0.0029
545.76	0.0029
546.051	0.003
546.342	0.0027
546.632	0.0026
546.923	0.0031
547.214	0.0022
547.504	0.0036
547.795	0.0015
548.085	0.0025
548.375	0.0032
548.666	0.0041
548.956	0.0034
549.246	0.0041
549.536	0.0042
549.826	0.0048
550.116	0.0046
550.406	0.003
550.695	0.0034
550.985	0.0026
551.275	0.0046
551.564	0.0055
551.854	0.0047
552.143	0.0044
552.433	0.0043
552.722	0.0043
553.011	0.0038
553.3	0.0032
553.589	0.0036
553.879	0.0038
554.167	0.0037
554.456	0.0026
554.745	0.004
555.034	0.0042
555.323	0.0024
555.611	0.003
555.9	0.0032
556.188	0.0029
556.477	0.0025
556.765	0.0029
557.053	0.0037
557.342	0.0036
557.63	0.0033
557.918	0.0036
558.206	0.004
558.494	0.0038
558.782	0.0041
559.069	0.0053
559.357	0.0036
559.645	0.0042
559.932	0.0033
560.22	0.0024
560.507	0.0023
560.795	0.0023
561.082	0.002
561.37	0.0029
561.657	0.0016
561.944	0.0023
562.231	0.0024
562.518	0.0035
562.805	0.0034
563.092	0.0028
563.379	0.0022
563.665	0.0025
563.952	0.0033
564.239	0.0038
564.525	0.0032
564.811	0.0038
565.098	0.0031
565.384	0.0033
565.67	0.0037
565.957	0.004
566.243	0.0038
566.529	0.0038
566.815	0.0038
567.101	0.0036
567.387	0.003
567.672	0.0029
567.958	0.0021
568.244	0.0028
568.529	0.0023
568.815	0.0027
569.1	0.0026
569.386	0.0037
569.671	0.0024
569.956	0.0029
570.242	0.0018
570.527	0.0009
570.812	0.0019
571.097	0.0018
571.382	0.0009
571.666	0.0018
571.951	0.0023
572.236	0.0015
572.521	0.0029
572.805	0.004
573.09	0.0027
573.374	0.0012
573.659	0.0018
573.943	0.002
574.227	0.0024
574.511	0.0018
574.795	0.0032
575.079	0.0026
575.363	0.0019
575.647	0.0031
575.931	0.0031
576.215	0.0026
576.499	0.0014
576.782	0.0014
577.066	0.0024
577.349	0.0023
577.633	0.0032
577.916	0.0016
578.2	0.0024
578.483	0.0026
578.766	0.0034
579.049	0.0032
579.332	0.0037
579.615	0.0026
579.898	0.0017
580.181	0.0026
580.464	0.0029
580.746	0.0024
581.029	0.0024
581.312	0.0007
581.594	0.0005
581.877	0.002
582.159	0.0036
582.441	0.0017
582.724	0.0028
583.006	0.0028
583.288	0.0029
583.57	0.0026
583.852	0.0035
584.134	0.003
584.416	0.002
584.697	0.0015
584.979	0.001
585.261	0.0009
585.542	0.0021
585.824	0.0029
586.105	0.0026
586.387	0.0028
586.668	0.0025
586.949	0.0031
587.231	0.0027
587.512	0.0025
587.793	0.0026
588.074	0.0027
588.355	0.003
588.636	0.002
588.916	0.0032
589.197	0.003
589.478	0.0037
589.758	0.0026
590.039	0.0017
590.319	0.0013
590.6	0.0016
590.88	0.0017
591.16	0.0025
591.441	0.0032
591.721	0.0019
592.001	0.0017
592.281	0.0026
592.561	0.0029
592.841	0.0014
593.12	0.0011
593.4	0.0024
593.68	0.0023
593.959	0.0023
594.239	0.0031
594.518	0.0043
594.798	0.0037
595.077	0.0024
595.356	0.0023
595.636	0.0025
595.915	0.0025
596.194	0.004
596.473	0.0041
596.752	0.0028
597.031	0.003
597.31	0.002
597.588	0.0028
597.867	0.0022
598.146	0.0017
598.424	0.0015
598.703	0.0019
598.981	0.0007
599.259	0.0007
599.538	0.003
599.816	0.0032
600.094	0.0016
600.372	0.0018
600.65	0.0029
600.928	0.0029
601.206	0.0018
601.484	0.003
601.762	0.0039
602.04	0.0042
602.317	0.0036
602.595	0.0038
602.872	0.0032
603.15	0.0033
603.427	0.0009
603.704	0.0018
603.982	0.0014
604.259	0.0013
604.536	0.0019
604.813	0.0022
605.09	0.0022
605.367	0.0008
605.644	0.0009
605.921	0.0013
606.197	0.0009
606.474	0.0022
606.751	0.0013
607.027	0.0014
607.304	0.0015
607.58	0.0023
607.856	0.0023
608.133	0.0038
608.409	0.0035
608.685	0.0026
608.961	0.0029
609.237	0.0035
609.513	0.0046
609.789	0.0018
610.065	0.0023
610.341	0.0019
610.616	0.0031
610.892	0.0027
611.167	0.0026
611.443	0.0021
611.718	0.0023
611.994	0.0025
612.269	0.0014
612.544	0.002
612.819	0.0008
613.095	0.0011
613.37	0.0009
613.645	0.0016
613.919	0.002
614.194	0.0022
614.469	0.002
614.744	0.0007
615.019	-0.0002
615.293	0.0015
615.568	0.0018
615.842	0.001
616.116	0.0021
616.391	0.0012
616.665	0.0004
616.939	0.0004
617.213	0.0013
617.488	0.0022
617.762	0.0019
618.035	0.0024
618.309	0.0016
618.583	0.0023
618.857	0.0029
619.131	0.0025
619.404	0.0023
619.678	0.0026
619.951	0.0018
620.225	0.0006
620.498	0.0016
620.771	0.0019
621.045	0.0022
621.318	0.0032
621.591	0.0015
621.864	0.0006
622.137	0.0008
622.41	0.0017
622.683	0.0015
622.956	0.0013
623.228	0.0018
623.501	0.0026
623.774	0.0025
624.046	0.0028
624.319	0.0025
624.591	0.0016
624.863	0.0023
625.136	0.0027
625.408	0.0042
625.68	0.0025
625.952	0.0028
626.224	0.0037
626.496	0.0035
626.768	0.0022
627.04	0.0033
627.311	0.0033
627.583	0.0039
627.855	0.0039
628.126	0.003
628.398	0.0022
628.669	0.003
628.941	0.0011
629.212	0.0011
629.483	0.0017
629.755	0.0014
630.026	0.0014
630.297	0.0019
630.568	0.0029
630.839	0.0038
631.11	0.0047
631.38	0.0038
631.651	0.0037
631.922	0.0031
632.192	0.0026
632.463	0.0033
632.733	0.0017
633.004	0.0029
633.274	0.0023
633.545	0.0023
633.815	0.0047
634.085	0.0033
634.355	0.0024
634.625	0.0027
634.895	0.0032
635.165	0.0019
635.435	0.0033
635.705	0.002
635.974	0.0015
636.244	0.0016
636.514	0.0009
636.783	0.001
637.053	0.0018
637.322	0.002
637.591	0.0011
637.861	0.0006
638.13	0.0023
638.399	0.0037
638.668	0.0034
638.937	0.0039
639.206	0.0035
639.475	0.0042
639.744	0.0037
640.013	0.0044
640.281	0.003
640.55	0.0032
640.819	0.0032
641.087	0.0028
641.356	0.0041
641.624	0.0044
641.892	0.0034
642.161	0.0037
642.429	0.0037
642.697	0.0034
642.965	0.0034
643.233	0.0021
643.501	0.0022
643.769	0.0028
644.037	0.0033
644.305	0.0025
644.572	0.0033
644.84	0.0023
645.108	0.0033
645.375	0.0031
645.643	0.0031
645.91	0.0027
646.177	0.0027
646.445	0.0026
646.712	0.0028
646.979	0.0027
647.246	0.0037
647.513	0.0034
647.78	0.0032
648.047	0.0012
648.314	0.0003
648.58	-0.0004
648.847	-0.0014
649.114	-0.0011
649.38	-0.0004
649.647	-0.0012
649.913	0
650.18	0.0013
650.446	0.0016
650.712	0.0031
650.978	0.0038
651.245	0.0032
651.511	0.0045
651.777	0.004
652.043	0.0028
652.309	0.0032
652.574	0.0026
652.84	0.0037
653.106	0.004
653.371	0.0052
653.637	0.0043
653.903	0.0042
654.168	0.0048
654.433	0.004
654.699	0.0029
654.964	0.0023
655.229	0.0013
655.494	0.0011
655.759	-0.0025
656.024	0.0005
656.289	-0
656.554	0.0028
656.819	0.0042
657.084	0.0048
657.349	0.0048
657.613	0.004
657.878	0.0027
658.142	0.0026
658.407	0.0024
658.671	0.0025
658.936	0.0023
659.2	0.0036
659.464	0.0027
659.728	0.0028
659.992	0.0015
660.256	0.0005
660.52	0.0011
660.784	0.0019
661.048	0.002
661.312	0.0022
661.575	0.0031
661.839	0.0034
662.103	0.003
662.366	0.0035
662.63	0.0025
662.893	0.002
663.156	0.0026
663.42	0.0038
663.683	0.0029
663.946	0.0039
664.209	0.0042
664.472	0.0036
664.735	0.0039
664.998	0.0053
665.261	0.0051
665.524	0.0053
665.786	0.0045
666.049	0.0043
666.312	0.0034
666.574	0.0032
666.837	0.0046
667.099	0.0043
667.361	0.0048
667.624	0.0036
667.886	0.005
668.148	0.0052
668.41	0.0046
668.672	0.0046
668.934	0.0042
669.196	0.0032
669.458	0.0023
669.72	0.0027
669.982	0.0025
670.243	0.0026
670.505	0.0025
670.766	0.0022
671.028	0.003
671.289	0.0043
671.551	0.0032
671.812	0.0019
672.073	0.0032
672.334	0.0029
672.596	0.0026
672.857	0.0038
673.118	0.0047
673.379	0.0054
673.639	0.0042
673.9	0.0047
674.161	0.004
674.422	0.0042
674.682	0.0044
674.943	0.0044
675.203	0.0044
675.464	0.0035
675.724	0.003
675.985	0.0033
676.245	0.0026
676.505	0.0019
676.765	0.0014
677.025	0.0026
677.285	0.0023
677.545	0.0017
677.805	0.0014
678.065	0.0029
678.325	0.0032
678.585	0.0049
678.844	0.0038
679.104	0.0049
679.363	0.0053
679.623	0.0058
679.882	0.0058
680.142	0.0061
680.401	0.0054
680.66	0.0061
680.919	0.0048
681.178	0.0055
681.437	0.0046
681.696	0.0025
681.955	0.0063
682.214	0.0055
682.473	0.0058
682.732	0.0035
682.99	0.0062
683.249	0.006
683.508	0.0053
683.766	0.0046
684.024	0.0038
684.283	0.0027
684.541	0.0026
684.799	0.0018
685.058	-0.0002
685.316	-0.001
685.574	-0.0006
685.832	0.0007
686.09	0.0013
686.348	0.0001
686.606	0.0002
686.863	0.0003
687.121	0.0012
687.379	-0.0002
687.636	-0.0002
687.894	0.0015
688.151	0.0012
688.409	0.002
688.666	0.0026
688.923	0.0023
689.181	0.0027
689.438	0.0017
689.695	0.0011
689.952	0.001
690.209	0.001
690.466	0.0008
690.723	0.002
690.979	0.0007
691.236	0.0001
691.493	-0.0009
691.75	-0.0001
692.006	0.0003
692.263	-0.0005
692.519	-0.0003
692.775	-0.0017
693.032	-0.0007
693.288	-0.0023
693.544	-0.001
693.8	0.001
694.056	0.0011
694.313	0.0012
694.568	0.0018
694.824	0.0013
695.08	0.0011
695.336	0.001
695.592	0.0008
695.847	0.002
696.103	0.004
696.359	0.0039
696.614	0.0041
696.869	0.0011
697.125	-0.0004
697.38	0.0001
697.635	0.0015
697.891	0.003
698.146	0.0022
698.401	0.0019
698.656	0.0017
698.911	0.003
699.166	0.002
699.42	0.0041
699.675	0.0043
699.93	0.0043
700.185	0.0043
700.439	0.0031
700.694	0.0028
700.948	0.0029
701.203	0.0024
701.457	0.003
701.711	0.0023
701.965	0.0018
702.22	0.0011
702.474	0.0015
702.728	0.0015
702.982	0.0016
703.236	0.0023
703.49	0.0023
703.743	0.0015
703.997	0.0017
704.251	0.0018
704.504	0.0017
704.758	0.0015
705.012	0.0025
705.265	0.0027
705.518	0.0033
705.772	0.0032
706.025	0.0046
706.278	0.0038
706.531	0.0033
706.785	0.0013
707.038	0.0007
707.291	0.0008
707.543	-0.0002
707.796	0.001
708.049	0.0015
708.302	0.0003
708.555	0.0008
708.807	0.0017
709.06	0.0023
709.312	0.0039
709.565	0.0044
709.817	0.0054
710.069	0.004
710.322	0.0043
710.574	0.0031
710.826	0.0016
711.078	0.002
711.33	0.0019
711.582	0.0017
711.834	0.0009
712.086	0.0021
712.338	0.0015
712.59	0.001
712.841	-0.0014
713.093	-0.0009
713.344	0.0008
713.596	-0
713.847	0.0001
714.099	-0.0001
714.35	0.0014
714.601	-0.0002
714.853	-0.0004
715.104	0.0006
715.355	-0.001
715.606	0.0013
715.857	0.0014
716.108	0.0025
716.359	0.0029
716.609	0.002
716.86	0.0034
717.111	0.0027
717.361	0.002
717.612	0.0022
717.863	0.0028
718.113	0.0027
718.363	0.0015
718.614	0.0019
718.864	0.0027
719.114	0.0014
719.364	0.0006
719.614	0.0002
719.865	0.0016
720.114	0.0022
720.364	0.0021
720.614	0.0029
720.864	0.0016
721.114	0.001
721.364	0.0012
721.613	0.0014
721.863	0.0007
722.112	0.0014
722.362	0.0014
722.611	0.0023
722.86	0.0032
723.11	0.0042
723.359	0.0029
723.608	0.0029
723.857	0.0038
724.106	0.0029
724.355	0.0028
724.604	0.0028
724.853	0.001
725.102	0.0007
725.351	-0.0008
725.599	-0.0017
725.848	-0.0014
726.097	0.0004
726.345	-0.0006
726.594	0.0002
726.842	0.0021
727.09	0.0001
727.339	-0.0002
727.587	0.0004
727.835	-0.0004
728.083	-0.0006
728.331	-0.0006
728.579	0.0008
728.827	-0.0007
729.075	-0.0017
729.323	-0.0018
729.571	-0.0021
729.818	-0.002
730.066	-0.0011
730.314	-0.0002
730.561	-0.0006
730.809	-0.0023
731.056	-0.0025
731.303	-0.0017
731.551	-0.0015
731.798	-0.0013
732.045	-0.0001
732.292	0.0008
732.539	0.0007
732.786	-0.0013
733.033	-0.0011
733.28	-0.0006
733.527	-0.0019
733.774	-0.0022
734.021	-0.0026
734.267	-0.0009
734.514	-0.0019
734.76	-0.0014
735.007	-0.0008
735.253	-0.0001
735.5	0.001
735.746	0.0017
735.992	0.0013
736.238	0.0018
736.485	0.0018
736.731	0.0029
736.977	0.001
737.223	0.0009
737.469	0.0005
737.715	0.0017
737.96	0.0025
738.206	0.0014
738.452	0.0031
738.697	0.0016
738.943	0.0006
739.189	0.001
739.434	0.0004
739.679	0.0011
739.925	0.0037
740.17	0.0038
740.415	0.0023
740.66	0.0032
740.906	0.0024
741.151	0.0019
741.396	0.001
741.641	0.0006
741.886	0.0005
742.13	-0.0002
742.375	0.0014
742.62	-0.0008
742.865	0.0004
743.109	-0
743.354	-0.0001
743.598	-0.0009
743.843	-0.0021
744.087	-0.0021
744.331	-0.0017
744.576	-0.0001
744.82	0.0011
745.064	0.0012
745.308	0.0023
745.552	0.0017
745.796	0.0004
746.04	0.0004
746.284	-0.0004
746.528	0.0011
746.771	0.0009
747.015	0.0014
747.259	-0.0007
747.502	-0
747.746	0.0005
747.989	0.0015
748.233	0.0029
748.476	0.0021
748.719	0.0014
748.963	0.0018
749.206	0.0013
749.449	-0
749.692	-0
749.935	0.0004
750.178	0.0006
750.421	0.0002
750.664	0.001
750.906	0.0005
751.149	0.0004
751.392	0.001
751.635	0.0011
751.877	0.0024
752.12	0.0011
752.362	0.0019
752.604	0.0022
752.847	0.0009
753.089	0.0013
753.331	0.0009
753.573	0.0005
753.816	0.0016
754.058	0.002
754.3	0.0029
754.542	0.0033
754.783	0.0032
755.025	0.0033
755.267	0.0024
755.509	0.0026
755.75	0.0001
755.992	0.0009
756.234	0.0018
756.475	0.0014
756.716	0.0012
756.958	0.0008
757.199	0.0011
757.44	0.0018
757.682	0.0006
757.923	0.0023
758.164	0.0031
758.405	0.0026
758.646	0.0032
758.887	0.0024
759.128	0.0023
759.369	0.0013
759.609	0.0008
759.85	0.0013
760.091	0.0007
760.331	0.0019
760.572	0.0021
760.812	0.001
761.053	0.0013
761.293	0.0028
761.533	0.0031
761.774	0.003
762.014	0.0041
762.254	0.0022
762.494	0.0028
762.734	0.002
762.974	0.0018
763.214	0.0021
763.454	0.0028
763.694	0.0022
763.933	0.0039
764.173	0.0052
764.413	0.0044
764.652	0.0021
764.892	0.0019
765.131	0.0013
765.371	0.0011
765.61	0.0011
765.849	-0.0006
766.089	-0.0003
766.328	-0.0004
766.567	-0.0011
766.806	-0.0009
767.045	-0.0014
767.284	-0.0004
767.523	-0.0002
767.762	-0.001
768.001	-0.0005
768.239	-0.0004
768.478	-0.0003
768.717	-0.0005
768.955	-0.0005
769.194	0.0005
769.432	0.0017
769.671	0.0005
769.909	0.0018
770.148	0.0007
770.386	0.0007
770.624	0.0002
770.862	-0.0005
771.1	-0.0014
771.338	-0.0008
771.576	-0.0001
771.814	-0.0002
772.052	0.0002
772.29	0.0013
772.528	0.0002
772.765	-0.0001
773.003	0.0009
773.24	0.0015
773.478	0.002
773.716	0.0023
773.953	0.0021
774.19	0.0017
774.428	0.0025
774.665	0.0028
774.902	0.0032
775.139	0.0023
775.376	0.0024
775.613	0.0031
775.85	0.0039
776.087	0.0042
776.324	0.0034
776.561	0.0031
776.798	0.002
777.034	0.0022
777.271	0.0022
777.508	0.0014
777.744	0.0022
777.981	0.0028
778.217	0.0018
778.454	0.0016
778.69	0.0013
778.926	0.002
779.162	0.0022
779.399	0.0023
779.635	0.0018
779.871	0.0021
780.107	0.0009
780.343	0.0003
780.579	0.0012
780.814	0.0025
781.05	0.0024
781.286	0.0008
781.522	0.0002
781.757	0.0003
781.993	0.0007
782.228	0.0004
782.464	0.0009
782.699	0.0015
782.934	0.0001
783.17	0.0012
783.405	0.0022
783.64	0.0015
783.875	0.0004
784.11	0.0011
784.345	0.0013
784.58	0.0018
784.815	0.0017
785.05	0.0011
785.285	0.0007
785.52	0.0015
785.754	0.0015
785.989	0.002
786.223	0.0031
786.458	0.0033
786.692	0.0034
786.927	0.0049
787.161	0.0048
787.396	0.005
787.63	0.0037
787.864	0.0034
788.098	0.0016
788.332	0.0015
788.566	0.0009
788.8	0.0007
789.034	0.001
789.268	0.001
789.502	0.0016
789.736	0.0023
789.969	0.0024
790.203	0.0025
790.437	0.0029
790.67	0.0035
790.904	0.0054
791.137	0.0065
791.37	0.0051
791.604	0.0059
791.837	0.0059
792.07	0.0069
792.303	0.0073
792.537	0.0071
792.77	0.0068
793.003	0.006
793.236	0.0049
793.469	0.005
793.701	0.0032
793.934	0.0025
794.167	0.0017
794.4	0.0004
794.632	0.0004
794.865	-0.0001
795.097	0.0004
795.33	0.0004
795.562	0.0003
795.795	0.0006
796.027	0.0005
796.259	0.0019
796.491	0.0011
796.724	0.0023
796.956	0.0015
797.188	0.0012
797.42	0.0018
797.652	0.0013
797.883	0.0023
798.115	0.0025
798.347	0.0032
798.579	0.0025
798.81	0.0034
799.042	0.0022
799.274	0.004
799.505	0.0032
799.737	0.0027
799.968	0.0019
800.199	0.0017
800.431	0.0025
800.662	0.0014
800.893	0.0013
801.124	0.0019
801.355	0.0036
801.586	0.0045
801.817	0.007
802.048	0.0063
802.279	0.0059
802.51	0.0072
802.741	0.0079
802.971	0.0068
803.202	0.0057
803.433	0.0047
803.663	0.0043
803.894	0.0047
804.124	0.0046
804.354	0.0048
804.585	0.0062
804.815	0.006
805.045	0.0071
805.275	0.0054
805.506	0.0154
805.736	-0.1075
805.966	-0.212
806.196	-0.143
