Data from 03 0.4 mM K2Cr2O7 0.25 M BQDS 1 M H2SO4 5 min_Absorbance_0145.txt Node
Date: Wed Dec 15 05:35:12 EST 2021
User: kwabilab-user
Spectrometer: HDX00518
Trigger mode: 0
Integration Time (sec): 5.000000E-2
Scans to average: 50
Nonlinearity correction enabled: false
Boxcar width: 0
Storing dark spectrum: false
XAxis mode: Wavelengths
Number of Pixels in Spectrum: 2068
>>>>>Begin Spectral Data<<<<<
195.27	-0.2121
195.642	-0.0296
196.014	-0.1811
196.386	-0.1942
196.758	-0.1515
197.129	-0.0419
197.501	-0.0751
197.872	-0.0228
198.244	-0.0203
198.615	0.0026
198.986	-0.0125
199.357	0.0038
199.728	0.0012
200.099	0.001
200.47	-0.0223
200.841	-0.0052
201.212	-0.0107
201.582	-0.0101
201.953	0.0001
202.323	-0.009
202.694	-0.0229
203.064	-0.0341
203.434	-0.0341
203.804	-0.0139
204.174	-0.0098
204.544	-0.0152
204.914	-0.0413
205.284	-0.0305
205.653	-0.0359
206.023	-0.028
206.393	-0.0301
206.762	-0.0255
207.131	-0.0127
207.501	-0.0133
207.87	-0.0018
208.239	-0.0141
208.608	-0.0364
208.977	-0.0392
209.346	-0.0367
209.715	-0.0229
210.083	-0.0068
210.452	-0.0388
210.82	-0.0224
211.189	-0.0436
211.557	-0.0049
211.925	-0.0523
212.294	-0.0371
212.662	-0.0044
213.03	-0.0333
213.398	-0.022
213.766	-0.0387
214.133	-0.0208
214.501	-0.0351
214.869	-0.0154
215.236	-0.0375
215.604	-0.015
215.971	-0.008
216.338	-0.0049
216.705	-0.0015
217.072	-0.0125
217.439	-0.002
217.806	-0.016
218.173	0.0022
218.54	-0.0046
218.907	0.0343
219.273	-0.0003
219.64	0.0256
220.006	0.0391
220.373	0.0623
220.739	0.0491
221.105	0.0835
221.471	0.0825
221.837	0.112
222.203	0.1222
222.569	0.1298
222.935	0.1577
223.3	0.1759
223.666	0.2134
224.031	0.2146
224.397	0.2418
224.762	0.2601
225.127	0.293
225.493	0.308
225.858	0.3389
226.223	0.3527
226.588	0.3651
226.952	0.3978
227.317	0.4364
227.682	0.4369
228.046	0.4489
228.411	0.4873
228.775	0.4849
229.14	0.4839
229.504	0.5228
229.868	0.5191
230.232	0.5243
230.596	0.536
230.96	0.5562
231.324	0.5577
231.688	0.5541
232.052	0.5903
232.415	0.5694
232.779	0.5792
233.142	0.5722
233.505	0.5948
233.869	0.5958
234.232	0.5792
234.595	0.5977
234.958	0.5993
235.321	0.5935
235.684	0.5923
236.047	0.593
236.409	0.5816
236.772	0.5843
237.134	0.5855
237.497	0.5765
237.859	0.5873
238.222	0.5869
238.584	0.5799
238.946	0.5594
239.308	0.5693
239.67	0.5661
240.032	0.5651
240.393	0.5622
240.755	0.5617
241.117	0.5555
241.478	0.5573
241.84	0.5532
242.201	0.5544
242.562	0.5395
242.924	0.5383
243.285	0.5309
243.646	0.5329
244.007	0.5385
244.368	0.5319
244.728	0.5283
245.089	0.5261
245.45	0.53
245.81	0.5227
246.171	0.52
246.531	0.5244
246.891	0.5216
247.252	0.5144
247.612	0.5232
247.972	0.511
248.332	0.513
248.692	0.5121
249.051	0.5141
249.411	0.5088
249.771	0.5074
250.13	0.5075
250.49	0.5104
250.849	0.5092
251.208	0.5093
251.568	0.5062
251.927	0.5059
252.286	0.504
252.645	0.5048
253.004	0.5002
253.363	0.5021
253.721	0.5074
254.08	0.4981
254.439	0.4991
254.797	0.4945
255.155	0.4953
255.514	0.4965
255.872	0.4949
256.23	0.4891
256.588	0.4961
256.946	0.4964
257.304	0.4928
257.662	0.4953
258.02	0.4953
258.377	0.489
258.735	0.4893
259.093	0.4866
259.45	0.4839
259.807	0.4938
260.165	0.4891
260.522	0.4869
260.879	0.4824
261.236	0.4821
261.593	0.4819
261.95	0.4807
262.306	0.478
262.663	0.4755
263.02	0.4776
263.376	0.4722
263.733	0.4713
264.089	0.4712
264.445	0.4712
264.802	0.4709
265.158	0.467
265.514	0.4699
265.87	0.4647
266.226	0.4607
266.581	0.4609
266.937	0.4574
267.293	0.4619
267.648	0.456
268.004	0.4515
268.359	0.451
268.714	0.4436
269.07	0.4433
269.425	0.4428
269.78	0.4429
270.135	0.4428
270.49	0.436
270.844	0.4386
271.199	0.4282
271.554	0.4287
271.908	0.4296
272.263	0.4268
272.617	0.422
272.972	0.4164
273.326	0.417
273.68	0.4134
274.034	0.4123
274.388	0.4111
274.742	0.407
275.096	0.405
275.45	0.4039
275.803	0.3989
276.157	0.3976
276.51	0.3878
276.864	0.3892
277.217	0.3897
277.571	0.387
277.924	0.3808
278.277	0.3769
278.63	0.3736
278.983	0.3725
279.336	0.3658
279.688	0.3629
280.041	0.3608
280.394	0.3577
280.746	0.3528
281.099	0.352
281.451	0.3441
281.803	0.3419
282.156	0.3395
282.508	0.3353
282.86	0.3311
283.212	0.3283
283.564	0.3233
283.916	0.3192
284.267	0.3156
284.619	0.3168
284.971	0.3124
285.322	0.3093
285.673	0.3078
286.025	0.3034
286.376	0.2976
286.727	0.296
287.078	0.2906
287.429	0.29
287.78	0.2853
288.131	0.2829
288.482	0.2783
288.833	0.2754
289.183	0.2735
289.534	0.2682
289.884	0.2663
290.235	0.2628
290.585	0.2594
290.935	0.2566
291.285	0.2538
291.635	0.2489
291.985	0.2476
292.335	0.2447
292.685	0.2406
293.035	0.2372
293.384	0.2346
293.734	0.23
294.083	0.2276
294.433	0.225
294.782	0.2221
295.131	0.2185
295.48	0.2162
295.829	0.2136
296.179	0.2113
296.527	0.2067
296.876	0.205
297.225	0.2004
297.574	0.1982
297.922	0.1951
298.271	0.1924
298.619	0.1899
298.968	0.1867
299.316	0.184
299.664	0.1832
300.012	0.1805
300.36	0.1772
300.708	0.1747
301.056	0.1723
301.404	0.1696
301.752	0.1677
302.099	0.1655
302.447	0.1628
302.794	0.1608
303.142	0.1593
303.489	0.1574
303.836	0.1542
304.183	0.1533
304.531	0.151
304.878	0.1498
305.224	0.1482
305.571	0.1473
305.918	0.1458
306.265	0.1424
306.611	0.1414
306.958	0.1411
307.304	0.1384
307.651	0.1378
307.997	0.1366
308.343	0.1355
308.689	0.1351
309.035	0.1333
309.381	0.1324
309.727	0.1323
310.073	0.1308
310.419	0.1293
310.764	0.1298
311.11	0.1278
311.455	0.1285
311.801	0.1276
312.146	0.126
312.491	0.1268
312.837	0.1267
313.182	0.1251
313.527	0.1239
313.872	0.1247
314.216	0.1247
314.561	0.1245
314.906	0.1247
315.251	0.1249
315.595	0.1244
315.94	0.1243
316.284	0.1245
316.628	0.1245
316.972	0.125
317.317	0.1244
317.661	0.125
318.005	0.1257
318.348	0.1249
318.692	0.1257
319.036	0.1258
319.38	0.1264
319.723	0.1269
320.067	0.1277
320.41	0.1278
320.754	0.129
321.097	0.128
321.44	0.1295
321.783	0.1306
322.126	0.1312
322.469	0.1311
322.812	0.1329
323.155	0.1337
323.498	0.1341
323.84	0.1341
324.183	0.1351
324.525	0.1365
324.868	0.1381
325.21	0.1377
325.552	0.139
325.894	0.1403
326.236	0.1407
326.578	0.1422
326.92	0.143
327.262	0.1431
327.604	0.1445
327.946	0.1452
328.287	0.1464
328.629	0.1479
328.97	0.1488
329.312	0.1492
329.653	0.1511
329.994	0.152
330.335	0.1525
330.676	0.1544
331.017	0.1549
331.358	0.1562
331.699	0.1579
332.04	0.1588
332.38	0.1596
332.721	0.1609
333.061	0.1616
333.402	0.163
333.742	0.164
334.083	0.1652
334.423	0.1659
334.763	0.1673
335.103	0.1683
335.443	0.1684
335.783	0.1697
336.123	0.1701
336.462	0.171
336.802	0.172
337.141	0.1726
337.481	0.1737
337.82	0.1751
338.16	0.1754
338.499	0.1765
338.838	0.1773
339.177	0.1779
339.516	0.1795
339.855	0.1803
340.194	0.1807
340.533	0.181
340.872	0.1817
341.21	0.1828
341.549	0.1836
341.887	0.1847
342.226	0.1847
342.564	0.1846
342.902	0.1849
343.24	0.1855
343.578	0.1866
343.916	0.1858
344.254	0.1867
344.592	0.1874
344.93	0.1873
345.268	0.1864
345.605	0.188
345.943	0.1875
346.28	0.1882
346.618	0.1873
346.955	0.1876
347.292	0.1887
347.629	0.1882
347.966	0.1881
348.303	0.1883
348.64	0.1887
348.977	0.1882
349.314	0.1891
349.65	0.1885
349.987	0.1887
350.324	0.1881
350.66	0.1884
350.996	0.1878
351.333	0.1871
351.669	0.1869
352.005	0.1871
352.341	0.1861
352.677	0.1851
353.013	0.184
353.349	0.1842
353.685	0.1826
354.02	0.1826
354.356	0.182
354.691	0.181
355.027	0.1809
355.362	0.1787
355.697	0.1785
356.033	0.1783
356.368	0.1775
356.703	0.1769
357.038	0.1764
357.373	0.1752
357.707	0.1744
358.042	0.1733
358.377	0.173
358.711	0.1728
359.046	0.1714
359.38	0.1708
359.715	0.1706
360.049	0.1695
360.383	0.168
360.717	0.1663
361.051	0.1663
361.385	0.1649
361.719	0.1635
362.053	0.163
362.387	0.1614
362.72	0.1601
363.054	0.1591
363.387	0.1577
363.721	0.1563
364.054	0.1556
364.387	0.1531
364.721	0.1524
365.054	0.1517
365.387	0.15
365.72	0.1488
366.053	0.1474
366.385	0.146
366.718	0.1457
367.051	0.1448
367.383	0.1424
367.716	0.1428
368.048	0.1417
368.381	0.1404
368.713	0.1387
369.045	0.1388
369.377	0.1373
369.709	0.1361
370.041	0.1351
370.373	0.1338
370.705	0.133
371.037	0.1318
371.368	0.1306
371.7	0.1297
372.031	0.1278
372.363	0.1268
372.694	0.1262
373.025	0.1237
373.356	0.1227
373.688	0.1213
374.019	0.1203
374.35	0.1183
374.68	0.1168
375.011	0.1157
375.342	0.1143
375.673	0.1132
376.003	0.1109
376.334	0.1101
376.664	0.1087
376.995	0.1074
377.325	0.1061
377.655	0.1048
377.985	0.1035
378.315	0.1029
378.645	0.1017
378.975	0.1011
379.305	0.0992
379.635	0.0992
379.964	0.0979
380.294	0.0971
380.623	0.0955
380.953	0.0949
381.282	0.0938
381.611	0.0939
381.941	0.0926
382.27	0.091
382.599	0.0902
382.928	0.0884
383.257	0.0878
383.585	0.0876
383.914	0.0857
384.243	0.0844
384.571	0.0833
384.9	0.0817
385.228	0.0805
385.557	0.0802
385.885	0.0777
386.213	0.0775
386.541	0.0763
386.869	0.0747
387.197	0.0735
387.525	0.0723
387.853	0.0714
388.181	0.07
388.508	0.0696
388.836	0.068
389.164	0.0675
389.491	0.0662
389.818	0.0644
390.146	0.0642
390.473	0.0637
390.8	0.0637
391.127	0.0614
391.454	0.0613
391.781	0.0608
392.108	0.0596
392.435	0.0588
392.761	0.0579
393.088	0.058
393.415	0.057
393.741	0.0567
394.067	0.0563
394.394	0.0557
394.72	0.0547
395.046	0.0532
395.372	0.0527
395.698	0.0525
396.024	0.0517
396.35	0.0517
396.676	0.0513
397.001	0.0493
397.327	0.0484
397.653	0.0485
397.978	0.048
398.303	0.0465
398.629	0.0467
398.954	0.0458
399.279	0.0452
399.604	0.0443
399.929	0.0441
400.254	0.0432
400.579	0.0432
400.904	0.043
401.229	0.0422
401.553	0.0416
401.878	0.0417
402.202	0.0417
402.527	0.0406
402.851	0.0406
403.175	0.0391
403.5	0.0396
403.824	0.0385
404.148	0.0393
404.472	0.0386
404.796	0.0385
405.119	0.0377
405.443	0.0378
405.767	0.0375
406.09	0.0373
406.414	0.0371
406.737	0.0375
407.061	0.0375
407.384	0.037
407.707	0.0367
408.03	0.0364
408.353	0.0359
408.676	0.0354
408.999	0.0359
409.322	0.0353
409.645	0.0353
409.968	0.0357
410.29	0.0357
410.613	0.0358
410.935	0.0345
411.258	0.0352
411.58	0.0342
411.902	0.0346
412.224	0.0351
412.546	0.035
412.868	0.0355
413.19	0.0345
413.512	0.035
413.834	0.0346
414.156	0.0351
414.477	0.0338
414.799	0.0343
415.121	0.0341
415.442	0.0341
415.763	0.0343
416.085	0.0344
416.406	0.0336
416.727	0.0346
417.048	0.0343
417.369	0.0346
417.69	0.034
418.011	0.034
418.331	0.0345
418.652	0.034
418.973	0.0338
419.293	0.0342
419.614	0.033
419.934	0.0344
420.254	0.034
420.574	0.0334
420.895	0.0334
421.215	0.0338
421.535	0.0336
421.855	0.0331
422.174	0.0323
422.494	0.033
422.814	0.0333
423.134	0.0339
423.453	0.0336
423.773	0.0344
424.092	0.0336
424.411	0.0337
424.731	0.0336
425.05	0.0337
425.369	0.0335
425.688	0.0341
426.007	0.0335
426.326	0.0341
426.644	0.0335
426.963	0.0338
427.282	0.0342
427.6	0.0332
427.919	0.0337
428.237	0.0338
428.556	0.0341
428.874	0.0338
429.192	0.0337
429.51	0.033
429.828	0.0342
430.146	0.0341
430.464	0.0334
430.782	0.0334
431.1	0.0328
431.418	0.0334
431.735	0.0334
432.053	0.0331
432.37	0.0336
432.688	0.0331
433.005	0.0329
433.322	0.0344
433.639	0.0339
433.957	0.0335
434.274	0.0335
434.591	0.0336
434.907	0.0332
435.224	0.0338
435.541	0.0337
435.858	0.0348
436.174	0.0338
436.491	0.0336
436.807	0.0333
437.124	0.033
437.44	0.0335
437.756	0.0335
438.072	0.0326
438.388	0.0332
438.704	0.0328
439.02	0.0331
439.336	0.0329
439.652	0.0327
439.968	0.0329
440.283	0.0329
440.599	0.033
440.914	0.0327
441.23	0.033
441.545	0.0333
441.86	0.0325
442.175	0.0338
442.491	0.0324
442.806	0.0326
443.121	0.0315
443.435	0.0324
443.75	0.0322
444.065	0.0324
444.38	0.0324
444.694	0.0322
445.009	0.0321
445.323	0.0319
445.638	0.0324
445.952	0.0319
446.266	0.0312
446.58	0.0307
446.894	0.0319
447.208	0.0315
447.522	0.0308
447.836	0.0312
448.15	0.0314
448.464	0.0306
448.777	0.031
449.091	0.0309
449.404	0.0308
449.718	0.0304
450.031	0.0299
450.345	0.0307
450.658	0.0305
450.971	0.0305
451.284	0.0305
451.597	0.0306
451.91	0.0301
452.223	0.0304
452.535	0.0302
452.848	0.03
453.161	0.0298
453.473	0.0295
453.786	0.0297
454.098	0.0295
454.411	0.0297
454.723	0.0298
455.035	0.0287
455.347	0.0285
455.659	0.0285
455.971	0.0294
456.283	0.0304
456.595	0.029
456.907	0.0295
457.218	0.0288
457.53	0.0276
457.841	0.0277
458.153	0.0279
458.464	0.0274
458.776	0.0279
459.087	0.0278
459.398	0.028
459.709	0.027
460.02	0.028
460.331	0.0278
460.642	0.0275
460.953	0.0269
461.263	0.0275
461.574	0.0263
461.885	0.0276
462.195	0.0262
462.506	0.0274
462.816	0.0274
463.126	0.0269
463.437	0.0264
463.747	0.025
464.057	0.0248
464.367	0.0246
464.677	0.0254
464.987	0.0249
465.296	0.0247
465.606	0.0252
465.916	0.0247
466.225	0.0248
466.535	0.0244
466.844	0.0251
467.154	0.0244
467.463	0.0243
467.772	0.0239
468.081	0.024
468.39	0.0239
468.699	0.0242
469.008	0.0233
469.317	0.0236
469.626	0.0237
469.935	0.023
470.243	0.0231
470.552	0.0228
470.86	0.0225
471.169	0.0221
471.477	0.0221
471.785	0.0217
472.093	0.0212
472.402	0.0213
472.71	0.0204
473.018	0.0203
473.326	0.0216
473.633	0.0211
473.941	0.0211
474.249	0.0211
474.556	0.0204
474.864	0.0213
475.171	0.0209
475.479	0.0201
475.786	0.0205
476.094	0.0198
476.401	0.0197
476.708	0.0196
477.015	0.0193
477.322	0.0187
477.629	0.0186
477.936	0.0196
478.242	0.0191
478.549	0.0189
478.856	0.0186
479.162	0.0189
479.469	0.0185
479.775	0.0182
480.081	0.0177
480.388	0.017
480.694	0.0175
481	0.0174
481.306	0.0175
481.612	0.018
481.918	0.0179
482.224	0.0175
482.53	0.0176
482.835	0.0176
483.141	0.017
483.446	0.0172
483.752	0.0164
484.057	0.0154
484.363	0.0158
484.668	0.0169
484.973	0.0155
485.278	0.015
485.583	0.0143
485.888	0.015
486.193	0.0136
486.498	0.0145
486.803	0.0144
487.107	0.014
487.412	0.0135
487.717	0.0141
488.021	0.0144
488.325	0.0139
488.63	0.0144
488.934	0.0141
489.238	0.0138
489.542	0.014
489.846	0.0131
490.15	0.0131
490.454	0.0142
490.758	0.0127
491.062	0.0124
491.366	0.0131
491.669	0.0128
491.973	0.0122
492.276	0.0125
492.58	0.0115
492.883	0.0124
493.186	0.0114
493.489	0.0125
493.792	0.0106
494.096	0.0108
494.399	0.0122
494.701	0.0118
495.004	0.0103
495.307	0.0115
495.61	0.0111
495.912	0.0119
496.215	0.011
496.517	0.0112
496.82	0.0106
497.122	0.0104
497.424	0.0107
497.727	0.0095
498.029	0.0098
498.331	0.0104
498.633	0.0111
498.935	0.0096
499.237	0.0102
499.538	0.0095
499.84	0.0088
500.142	0.0083
500.443	0.0096
500.745	0.0097
501.046	0.0097
501.348	0.0088
501.649	0.008
501.95	0.0087
502.251	0.0086
502.552	0.0077
502.853	0.0085
503.154	0.0095
503.455	0.0075
503.756	0.0079
504.057	0.0079
504.357	0.0072
504.658	0.0084
504.958	0.0073
505.259	0.0077
505.559	0.0075
505.859	0.0066
506.16	0.0065
506.46	0.0069
506.76	0.0067
507.06	0.0063
507.36	0.0064
507.66	0.0069
507.96	0.0072
508.259	0.0066
508.559	0.0061
508.859	0.0066
509.158	0.0068
509.457	0.0052
509.757	0.0057
510.056	0.0061
510.355	0.0061
510.655	0.0054
510.954	0.0062
511.253	0.0051
511.552	0.0059
511.851	0.0052
512.149	0.0055
512.448	0.0057
512.747	0.0056
513.045	0.0049
513.344	0.0053
513.642	0.0052
513.941	0.0055
514.239	0.0047
514.537	0.0048
514.836	0.0051
515.134	0.0046
515.432	0.004
515.73	0.0045
516.028	0.0042
516.326	0.004
516.623	0.0039
516.921	0.0045
517.219	0.0051
517.516	0.0033
517.814	0.0047
518.111	0.004
518.409	0.0051
518.706	0.0035
519.003	0.0031
519.3	0.0033
519.597	0.0042
519.894	0.0024
520.191	0.005
520.488	0.0045
520.785	0.0049
521.082	0.0052
521.378	0.0056
521.675	0.0032
521.971	0.0038
522.268	0.0042
522.564	0.0051
522.861	0.0046
523.157	0.0041
523.453	0.0047
523.749	0.0038
524.045	0.0039
524.341	0.0038
524.637	0.0027
524.933	0.0035
525.229	0.0039
525.524	0.0035
525.82	0.0038
526.115	0.0033
526.411	0.0032
526.706	0.0037
527.002	0.0029
527.297	0.0032
527.592	0.0032
527.887	0.0034
528.182	0.0021
528.477	0.0034
528.772	0.003
529.067	0.0032
529.362	0.0034
529.657	0.0024
529.951	0.0031
530.246	0.002
530.54	0.0023
530.835	0.0029
531.129	0.0036
531.423	0.0018
531.718	0.0026
532.012	0.0028
532.306	0.0031
532.6	0.0022
532.894	0.0035
533.188	0.002
533.482	0.0027
533.775	0.0029
534.069	0.0026
534.363	0.0022
534.656	0.0028
534.95	0.0029
535.243	0.0023
535.536	0.0018
535.83	0.002
536.123	0.0023
536.416	0.002
536.709	0.0036
537.002	0.0033
537.295	0.003
537.588	0.0035
537.881	0.0023
538.173	0.0028
538.466	0.0035
538.759	0.0025
539.051	0.0032
539.344	0.0028
539.636	0.0025
539.928	0.0039
540.22	0.0022
540.513	0.0036
540.805	0.004
541.097	0.004
541.389	0.0022
541.681	0.0038
541.972	0.0015
542.264	0.0034
542.556	0.0035
542.847	0.0033
543.139	0.0031
543.431	0.0031
543.722	0.0013
544.013	0.0036
544.305	0.003
544.596	0.0037
544.887	0.0031
545.178	0.0043
545.469	0.0042
545.76	0.0043
546.051	0.0038
546.342	0.0042
546.632	0.0032
546.923	0.0026
547.214	0.0021
547.504	0.0042
547.795	0.0026
548.085	0.0027
548.375	0.0038
548.666	0.0036
548.956	0.0028
549.246	0.004
549.536	0.0038
549.826	0.0046
550.116	0.0043
550.406	0.0033
550.695	0.0036
550.985	0.0035
551.275	0.0038
551.564	0.0048
551.854	0.004
552.143	0.0045
552.433	0.0038
552.722	0.0042
553.011	0.0029
553.3	0.0038
553.589	0.0049
553.879	0.0038
554.167	0.0033
554.456	0.0027
554.745	0.0035
555.034	0.0048
555.323	0.0035
555.611	0.0039
555.9	0.0032
556.188	0.0031
556.477	0.0039
556.765	0.003
557.053	0.0031
557.342	0.0032
557.63	0.0032
557.918	0.0034
558.206	0.0041
558.494	0.0035
558.782	0.003
559.069	0.0046
559.357	0.0033
559.645	0.0054
559.932	0.0035
560.22	0.0037
560.507	0.0017
560.795	0.0018
561.082	0.0026
561.37	0.0029
561.657	0.0023
561.944	0.0026
562.231	0.0024
562.518	0.0025
562.805	0.004
563.092	0.0027
563.379	0.0029
563.665	0.0029
563.952	0.0044
564.239	0.0044
564.525	0.0029
564.811	0.0037
565.098	0.0027
565.384	0.0024
565.67	0.0028
565.957	0.0036
566.243	0.0038
566.529	0.0035
566.815	0.0036
567.101	0.0034
567.387	0.0032
567.672	0.0029
567.958	0.0019
568.244	0.0015
568.529	0.0024
568.815	0.0031
569.1	0.0027
569.386	0.0032
569.671	0.0024
569.956	0.0026
570.242	0.0027
570.527	0.002
570.812	0.0026
571.097	0.0026
571.382	0.002
571.666	0.0016
571.951	0.0034
572.236	0.0024
572.521	0.0024
572.805	0.0033
573.09	0.003
573.374	0.0021
573.659	0.0025
573.943	0.0022
574.227	0.0027
574.511	0.0031
574.795	0.0031
575.079	0.0026
575.363	0.0021
575.647	0.0021
575.931	0.0028
576.215	0.0027
576.499	0.0023
576.782	0.0019
577.066	0.0022
577.349	0.0028
577.633	0.0032
577.916	0.0031
578.2	0.0027
578.483	0.0029
578.766	0.0034
579.049	0.003
579.332	0.0024
579.615	0.0027
579.898	0.0018
580.181	0.0026
580.464	0.0029
580.746	0.0025
581.029	0.0035
581.312	0.0027
581.594	0.0017
581.877	0.0015
582.159	0.0034
582.441	0.0017
582.724	0.0026
583.006	0.0032
583.288	0.003
583.57	0.002
583.852	0.003
584.134	0.0039
584.416	0.0026
584.697	0.0029
584.979	0.0024
585.261	0.0021
585.542	0.0024
585.824	0.0033
586.105	0.0029
586.387	0.0031
586.668	0.0029
586.949	0.0039
587.231	0.0035
587.512	0.0032
587.793	0.0021
588.074	0.0027
588.355	0.0027
588.636	0.0026
588.916	0.0025
589.197	0.0011
589.478	0.0033
589.758	0.0018
590.039	0.0015
590.319	0.0012
590.6	0.0015
590.88	0.0024
591.16	0.0022
591.441	0.003
591.721	0.0024
592.001	0.0025
592.281	0.0029
592.561	0.0039
592.841	0.0029
593.12	0.0021
593.4	0.0023
593.68	0.0018
593.959	0.0012
594.239	0.0026
594.518	0.0027
594.798	0.0039
595.077	0.0026
595.356	0.0026
595.636	0.0021
595.915	0.0019
596.194	0.0026
596.473	0.003
596.752	0.0026
597.031	0.0017
597.31	0.002
597.588	0.0015
597.867	0.0016
598.146	0.0015
598.424	0.0012
598.703	0.0016
598.981	0.0016
599.259	0.0013
599.538	0.0026
599.816	0.0034
600.094	0.0028
600.372	0.002
600.65	0.0028
600.928	0.003
601.206	0.0028
601.484	0.0024
601.762	0.0028
602.04	0.0042
602.317	0.0023
602.595	0.0031
602.872	0.0033
603.15	0.0033
603.427	0.0019
603.704	0.0015
603.982	0.0018
604.259	0.0018
604.536	0.0018
604.813	0.002
605.09	0.0017
605.367	0.0018
605.644	0.0016
605.921	0.0018
606.197	0.001
606.474	0.0024
606.751	0.0018
607.027	0.0017
607.304	0.002
607.58	0.0023
607.856	0.0026
608.133	0.0023
608.409	0.0041
608.685	0.0029
608.961	0.0029
609.237	0.0031
609.513	0.0037
609.789	0.0026
610.065	0.0026
610.341	0.0011
610.616	0.0024
610.892	0.0025
611.167	0.0034
611.443	0.003
611.718	0.0037
611.994	0.0031
612.269	0.0022
612.544	0.0029
612.819	0.0017
613.095	0.0021
613.37	0.0019
613.645	0.0013
613.919	0.0028
614.194	0.0016
614.469	0.0021
614.744	0.0019
615.019	0.001
615.293	0.0013
615.568	0.0014
615.842	0.0011
616.116	0.0007
616.391	0.0009
616.665	0.0008
616.939	0.0008
617.213	0.0008
617.488	0.0016
617.762	0.0017
618.035	0.0023
618.309	0.0019
618.583	0.002
618.857	0.0022
619.131	0.0016
619.404	0.0016
619.678	0.0029
619.951	0.0027
620.225	0.0008
620.498	0.0013
620.771	0.0017
621.045	0.0019
621.318	0.0027
621.591	0.0031
621.864	0.0014
622.137	0.0017
622.41	0.0012
622.683	0.0008
622.956	0.0005
623.228	0.0021
623.501	0.0017
623.774	0.0022
624.046	0.0018
624.319	0.0015
624.591	0.0021
624.863	0.0022
625.136	0.002
625.408	0.0037
625.68	0.0018
625.952	0.0012
626.224	0.0033
626.496	0.0029
626.768	0.0015
627.04	0.0027
627.311	0.0021
627.583	0.0029
627.855	0.0029
628.126	0.0011
628.398	0.0011
628.669	0.0017
628.941	0.0004
629.212	0.0002
629.483	0.0009
629.755	0.0001
630.026	0.0007
630.297	0.0011
630.568	0.0017
630.839	0.0014
631.11	0.0023
631.38	0.0023
631.651	0.0024
631.922	0.0017
632.192	0.0015
632.463	0.0025
632.733	0.0007
633.004	0.0014
633.274	0.0008
633.545	0.001
633.815	0.0023
634.085	0.0024
634.355	0.0018
634.625	0.0015
634.895	0.0024
635.165	0.0018
635.435	0.0031
635.705	0.0022
635.974	0.0011
636.244	0.0014
636.514	0.0001
636.783	0
637.053	0.0008
637.322	0.0008
637.591	0.0012
637.861	-0.0014
638.13	0.0012
638.399	0.0016
638.668	0.0017
638.937	0.0017
639.206	0.0022
639.475	0.0028
639.744	0.0017
640.013	0.0018
640.281	0.0017
640.55	0.0017
640.819	0.0022
641.087	0.0013
641.356	0.002
641.624	0.0013
641.892	0.0027
642.161	0.0016
642.429	0.0014
642.697	0.0015
642.965	0.0007
643.233	-0.0004
643.501	-0.0004
643.769	0.0007
644.037	0.0013
644.305	0.0002
644.572	0.0002
644.84	-0.0005
645.108	0.0008
645.375	0.0013
645.643	0.002
645.91	0.0011
646.177	0.0019
646.445	0.001
646.712	0.0021
646.979	0.0012
647.246	0.0026
647.513	0.0011
647.78	0.0028
648.047	0.0008
648.314	-0.0005
648.58	-0.0014
648.847	-0.0019
649.114	-0.0029
649.38	-0.0019
649.647	-0.0014
649.913	-0.0011
650.18	0.0002
650.446	0.0009
650.712	0.0024
650.978	0.002
651.245	0.0022
651.511	0.0034
651.777	0.0021
652.043	0.0015
652.309	0.002
652.574	0.0003
652.84	0.0017
653.106	0.0022
653.371	0.0029
653.637	0.0024
653.903	0.0017
654.168	0.0027
654.433	0.0022
654.699	0.0014
654.964	0
655.229	0.0004
655.494	0.0022
655.759	0.0017
656.024	0.0003
656.289	-0
656.554	-0.0002
656.819	0.0006
657.084	0.003
657.349	0.0022
657.613	0.0022
657.878	0.0005
658.142	0.0005
658.407	0.001
658.671	0.0012
658.936	0.0011
659.2	0.0024
659.464	0.001
659.728	0.0013
659.992	-0.0002
660.256	-0.0016
660.52	-0.0001
660.784	0.0001
661.048	0.0004
661.312	-0.0001
661.575	0.0007
661.839	0.0013
662.103	0.0004
662.366	0.0003
662.63	0.0018
662.893	0.0012
663.156	0.0014
663.42	0.0022
663.683	0.0015
663.946	0.0019
664.209	0.0029
664.472	0.0022
664.735	0.0017
664.998	0.0029
665.261	0.0029
665.524	0.0028
665.786	0.002
666.049	0.0023
666.312	0.0018
666.574	0.0013
666.837	0.0025
667.099	0.0023
667.361	0.0033
667.624	0.0023
667.886	0.0023
668.148	0.003
668.41	0.0025
668.672	0.0026
668.934	0.0023
669.196	0.0018
669.458	0.0007
669.72	0.0011
669.982	0.0011
670.243	0.0005
670.505	0.0016
670.766	0.0008
671.028	0.0013
671.289	0.0014
671.551	0.0018
671.812	0.001
672.073	0.0008
672.334	0.0012
672.596	0.0009
672.857	0.001
673.118	0.0014
673.379	0.003
673.639	0.0018
673.9	0.0027
674.161	0.0014
674.422	0.0016
674.682	0.001
674.943	-0
675.203	0.0019
675.464	0.0018
675.724	0.0012
675.985	0.0015
676.245	0.001
676.505	0
676.765	-0.0003
677.025	0.0005
677.285	0
677.545	-0.0002
677.805	0.0003
678.065	0.0006
678.325	0.0012
678.585	0.0026
678.844	0.0033
679.104	0.0036
679.363	0.0043
679.623	0.0036
679.882	0.0035
680.142	0.0037
680.401	0.0037
680.66	0.0047
680.919	0.0026
681.178	0.0039
681.437	0.003
681.696	0.0026
681.955	0.0044
682.214	0.0041
682.473	0.0036
682.732	0.0032
682.99	0.0041
683.249	0.0041
683.508	0.0033
683.766	0.0038
684.024	0.0023
684.283	0.0016
684.541	0.0015
684.799	0.0008
685.058	-0.0007
685.316	-0.001
685.574	-0.0015
685.832	-0.0006
686.09	-0.0007
686.348	-0.0005
686.606	-0.0007
686.863	-0.0023
687.121	-0.001
687.379	-0.0014
687.636	-0.0022
687.894	-0.002
688.151	-0.0023
688.409	-0.0013
688.666	-0.0001
688.923	-0.001
689.181	-0.0003
689.438	-0.0013
689.695	-0.0003
689.952	-0.001
690.209	-0.0006
690.466	-0.0015
690.723	-0.0004
690.979	-0.0011
691.236	-0.001
691.493	-0.0025
691.75	-0.001
692.006	-0.0011
692.263	-0.0013
692.519	-0.0014
692.775	-0.0024
693.032	-0.0035
693.288	-0.0026
693.544	-0.0029
693.8	-0.0004
694.056	-0.0018
694.313	-0.0016
694.568	-0.001
694.824	-0.0006
695.08	-0.0006
695.336	-0.0005
695.592	-0.0003
695.847	0.0009
696.103	0.0014
696.359	0.0027
696.614	0.0021
696.869	0.0001
697.125	-0.0008
697.38	-0.0017
697.635	0.0003
697.891	0.0006
698.146	-0.0004
698.401	0.0008
698.656	-0.0003
698.911	0.0018
699.166	0.0008
699.42	0.0019
699.675	0.002
699.93	0.0026
700.185	0.0024
700.439	0.002
700.694	0.0014
700.948	0.0017
701.203	0.0012
701.457	0.0001
701.711	0.0008
701.965	-0
702.22	-0.0004
702.474	-0.0002
702.728	0.0005
702.982	-0.0005
703.236	-0.0001
703.49	0.0003
703.743	-0.0008
703.997	-0.0001
704.251	-0.0006
704.504	0.001
704.758	0.001
705.012	0.0012
705.265	0.0028
705.518	0.0015
705.772	0.0025
706.025	0.0024
706.278	0.0019
706.531	0.0012
706.785	-0.0006
707.038	-0.001
707.291	-0.0014
707.543	-0.0009
707.796	-0.0006
708.049	0.0001
708.302	-0.0005
708.555	-0.0006
708.807	-0.0003
709.06	0.0001
709.312	0.0016
709.565	0.001
709.817	0.0027
710.069	0.0018
710.322	0.0024
710.574	0.0026
710.826	0.0017
711.078	0.001
711.33	0.0012
711.582	0.0015
711.834	0.0006
712.086	0.0014
712.338	0.0012
712.59	0.0002
712.841	-0.0007
713.093	-0.0007
713.344	0.0003
713.596	-0.0007
713.847	-0.0019
714.099	-0.0018
714.35	-0.0003
714.601	-0.002
714.853	-0.0026
715.104	-0.0023
715.355	-0.0014
715.606	-0.0002
715.857	0.0004
716.108	0.0016
716.359	0.0011
716.609	-0.0004
716.86	0.001
717.111	0.0003
717.361	0.0004
717.612	0.0004
717.863	0.0011
718.113	0.0021
718.363	0.0016
718.614	0.0012
718.864	0.001
719.114	0.0008
719.364	-0.0006
719.614	0.0004
719.865	-0
720.114	0.0008
720.364	-0.0002
720.614	-0.0002
720.864	-0.0006
721.114	-0.0014
721.364	-0.0013
721.613	-0.0023
721.863	-0.0012
722.112	-0.0014
722.362	-0.0009
722.611	-0.0003
722.86	0.0001
723.11	0.0019
723.359	0.0016
723.608	0.0012
723.857	0.0033
724.106	0.0028
724.355	0.002
724.604	0.0012
724.853	0.0008
725.102	-0.0008
725.351	-0.002
725.599	-0.0034
725.848	-0.0018
726.097	-0.0013
726.345	-0.0019
726.594	-0.001
726.842	-0.0003
727.09	-0.0008
727.339	-0.0003
727.587	-0.0014
727.835	-0.0024
728.083	-0.0034
728.331	-0.0029
728.579	-0.0015
728.827	-0.0025
729.075	-0.0026
729.323	-0.0031
729.571	-0.0031
729.818	-0.004
730.066	-0.0029
730.314	-0.0016
730.561	-0.0022
730.809	-0.0034
731.056	-0.0026
731.303	-0.0028
731.551	-0.0027
731.798	-0.0025
732.045	-0.0012
732.292	-0.0024
732.539	-0.0012
732.786	-0.0023
733.033	-0.0035
733.28	-0.0025
733.527	-0.0025
733.774	-0.0026
734.021	-0.003
734.267	-0.0025
734.514	-0.0028
734.76	-0.0026
735.007	-0.0019
735.253	-0.0011
735.5	0.0013
735.746	0.0024
735.992	0.0016
736.238	0.001
736.485	0.0007
736.731	0.0012
736.977	0.0004
737.223	-0.0008
737.469	-0.0004
737.715	0.0001
737.96	-0.0001
738.206	0.0001
738.452	0.0002
738.697	-0.0002
738.943	-0.001
739.189	-0.0001
739.434	-0.0011
739.679	0.0003
739.925	0.0013
740.17	0.0025
740.415	0.0012
740.66	0.0019
740.906	0.0012
741.151	0.0015
741.396	0.0009
741.641	-0.0003
741.886	0.0005
742.13	0.0003
742.375	0.0008
742.62	-0.0005
742.865	-0.0006
743.109	0.0007
743.354	-0.0006
743.598	-0.001
743.843	-0.002
744.087	-0.0026
744.331	-0.0019
744.576	-0.0013
744.82	-0.0007
745.064	-0.0003
745.308	0
745.552	-0.0017
745.796	-0.0014
746.04	-0.0009
746.284	-0.0022
746.528	-0.0014
746.771	-0.0003
747.015	-0.0012
747.259	-0.0018
747.502	-0.0026
747.746	-0.0021
747.989	-0.0017
748.233	-0.0002
748.476	-0.0003
748.719	-0
748.963	0.0004
749.206	-0
749.449	-0.0004
749.692	-0.001
749.935	-0.0003
750.178	-0.0005
750.421	-0.0014
750.664	-0.0013
750.906	-0.0009
751.149	-0.0018
751.392	-0.0005
751.635	-0.0008
751.877	-0.0007
752.12	-0.0003
752.362	0.0006
752.604	0.0007
752.847	-0.0001
753.089	-0.0006
753.331	-0.0011
753.573	-0.0005
753.816	0.0001
754.058	-0.0003
754.3	0.0003
754.542	0.0011
754.783	0.0006
755.025	0.0011
755.267	0.0017
755.509	0.0014
755.75	-0.0002
755.992	0.0005
756.234	0.0005
756.475	0.0016
756.716	0.0008
756.958	0.0003
757.199	0.0001
757.44	0.0004
757.682	0.0004
757.923	0.0013
758.164	0.0007
758.405	0.0006
758.646	0.0009
758.887	-0.0001
759.128	-0.0003
759.369	-0.0009
759.609	-0.0014
759.85	-0.0011
760.091	-0.0014
760.331	-0.0001
760.572	0.0001
760.812	-0.0002
761.053	0.0003
761.293	0.0008
761.533	0.0005
761.774	0.0007
762.014	0.0012
762.254	0.001
762.494	0.0013
762.734	0.0007
762.974	0.0012
763.214	0.0007
763.454	0.0013
763.694	0.0012
763.933	0.0026
764.173	0.0039
764.413	0.0039
764.652	0.0009
764.892	0.0006
765.131	0.0003
765.371	-0.0007
765.61	-0.0013
765.849	-0.0023
766.089	-0.0027
766.328	-0.002
766.567	-0.0023
766.806	-0.0033
767.045	-0.0038
767.284	-0.0018
767.523	-0.0022
767.762	-0.0019
768.001	-0.0014
768.239	-0.0019
768.478	-0.0022
768.717	-0.0031
768.955	-0.0024
769.194	-0.0022
769.432	-0.0015
769.671	-0.0012
769.909	-0.0011
770.148	-0.0018
770.386	-0.0014
770.624	-0.0011
770.862	-0.0014
771.1	-0.002
771.338	-0.0019
771.576	-0.0009
771.814	-0.0001
772.052	-0.0007
772.29	0.0013
772.528	0.0002
772.765	-0.0007
773.003	-0.0004
773.24	-0.0008
773.478	0.0002
773.716	0.0015
773.953	0.0011
774.19	0.0017
774.428	0.0018
774.665	0.0028
774.902	0.0031
775.139	0.0019
775.376	0.001
775.613	0.0015
775.85	0.0011
776.087	0.0014
776.324	-0
776.561	-0.0003
776.798	-0.0006
777.034	-0.0007
777.271	0.0005
777.508	-0.0005
777.744	0.0008
777.981	0.0008
778.217	-0.0004
778.454	-0.0007
778.69	-0.001
778.926	-0.001
779.162	-0.0007
779.399	0.0002
779.635	-0.0001
779.871	-0.0011
780.107	-0.0016
780.343	-0.0017
780.579	-0.0012
780.814	-0.0008
781.05	-0.0008
781.286	-0.0008
781.522	-0.0015
781.757	-0.0027
781.993	-0.0012
782.228	-0.0017
782.464	-0.0011
782.699	-0.0007
782.934	-0.0008
783.17	-0.0011
783.405	0.0007
783.64	-0.0011
783.875	-0.0014
784.11	-0.0013
784.345	-0.0007
784.58	-0.0008
784.815	-0.0008
785.05	-0.0013
785.285	-0.0019
785.52	-0.0008
785.754	-0.0018
785.989	0.0003
786.223	0.0012
786.458	0.002
786.692	0.0034
786.927	0.0041
787.161	0.0037
787.396	0.0042
787.63	0.0034
787.864	0.002
788.098	0.0013
788.332	0.0003
788.566	-0.0002
788.8	-0.0005
789.034	0.0001
789.268	-0.0008
789.502	-0.0011
789.736	-0.0011
789.969	-0.0006
790.203	-0.0003
790.437	0.0004
790.67	0.001
790.904	0.0017
791.137	0.0022
791.37	0.0018
791.604	0.0022
791.837	0.0024
792.07	0.0033
792.303	0.0044
792.537	0.0048
792.77	0.0042
793.003	0.0037
793.236	0.0026
793.469	0.0026
793.701	0.0013
793.934	0.0014
794.167	0.0007
794.4	0.0007
794.632	-0.0008
794.865	-0.0011
795.097	-0.001
795.33	-0.0013
795.562	-0.0012
795.795	-0.0015
796.027	-0.0003
796.259	0.0001
796.491	-0.0002
796.724	0.0008
796.956	0.0005
797.188	0.0007
797.42	0.0001
797.652	0.0008
797.883	0.0017
798.115	0.0022
798.347	0.0024
798.579	0.0015
798.81	0.0012
799.042	0.0019
799.274	0.0022
799.505	0.0023
799.737	0.0025
799.968	0.0018
800.199	0.0013
800.431	0.0024
800.662	0.0012
800.893	0.001
801.124	0.0016
801.355	0.0012
801.586	0.0025
801.817	0.0042
802.048	0.0039
802.279	0.003
802.51	0.0038
802.741	0.0054
802.971	0.0048
803.202	0.0035
803.433	0.0034
803.663	0.0024
803.894	0.0028
804.124	0.0023
804.354	0.0041
804.585	0.0045
804.815	0.0047
805.045	0.0055
805.275	0.0035
805.506	0.0387
805.736	-0.1198
805.966	-0.2877
806.196	-0.0394
