Data from 03 0.4 mM K2Cr2O7 0.25 M BQDS 1 M H2SO4 5 min_Absorbance_0147.txt Node
Date: Wed Dec 15 05:45:12 EST 2021
User: kwabilab-user
Spectrometer: HDX00518
Trigger mode: 0
Integration Time (sec): 5.000000E-2
Scans to average: 50
Nonlinearity correction enabled: false
Boxcar width: 0
Storing dark spectrum: false
XAxis mode: Wavelengths
Number of Pixels in Spectrum: 2068
>>>>>Begin Spectral Data<<<<<
195.27	-0.1574
195.642	-0.074
196.014	-0.3041
196.386	0.0864
196.758	-0.1044
197.129	-0.0385
197.501	-0.0308
197.872	-0.0214
198.244	-0.0013
198.615	0.0206
198.986	0.0075
199.357	-0.0024
199.728	0.0255
200.099	0.0014
200.47	-0.0012
200.841	-0.0031
201.212	0.0017
201.582	-0.0019
201.953	-0.0064
202.323	0.0066
202.694	-0.0144
203.064	-0.0016
203.434	-0.0158
203.804	-0.0138
204.174	-0.021
204.544	0.0079
204.914	-0.0012
205.284	-0.0169
205.653	-0.0311
206.023	-0.0126
206.393	-0.0178
206.762	0.0058
207.131	-0.0079
207.501	-0.0145
207.87	-0.0056
208.239	0.0014
208.608	-0
208.977	-0.012
209.346	-0.0197
209.715	0.0026
210.083	-0.0067
210.452	-0.0157
210.82	-0.0062
211.189	-0.0112
211.557	0.0058
211.925	-0.0186
212.294	-0.0306
212.662	0.002
213.03	-0.0079
213.398	-0.0221
213.766	-0.0018
214.133	0.0054
214.501	-0.0235
214.869	-0.0283
215.236	-0.0041
215.604	0.0169
215.971	0.0162
216.338	0.0004
216.705	0.0092
217.072	0.006
217.439	0.0236
217.806	0.0157
218.173	0.0199
218.54	0.0227
218.907	0.0273
219.273	0.0257
219.64	0.048
220.006	0.0352
220.373	0.0585
220.739	0.0763
221.105	0.0931
221.471	0.1083
221.837	0.1281
222.203	0.1364
222.569	0.1381
222.935	0.1645
223.3	0.2104
223.666	0.2103
224.031	0.2383
224.397	0.2566
224.762	0.2836
225.127	0.3073
225.493	0.3217
225.858	0.3658
226.223	0.3737
226.588	0.3955
226.952	0.4173
227.317	0.4508
227.682	0.4636
228.046	0.4737
228.411	0.4899
228.775	0.5006
229.14	0.502
229.504	0.5402
229.868	0.5384
230.232	0.5448
230.596	0.5597
230.96	0.5792
231.324	0.5615
231.688	0.5687
232.052	0.5894
232.415	0.5804
232.779	0.6028
233.142	0.6061
233.505	0.6141
233.869	0.6034
234.232	0.5963
234.595	0.6017
234.958	0.5892
235.321	0.5961
235.684	0.5982
236.047	0.5877
236.409	0.5856
236.772	0.5857
237.134	0.5797
237.497	0.5835
237.859	0.5956
238.222	0.5966
238.584	0.5781
238.946	0.5655
239.308	0.5714
239.67	0.5749
240.032	0.5703
240.393	0.563
240.755	0.5527
241.117	0.5665
241.478	0.5709
241.84	0.5613
242.201	0.5534
242.562	0.5432
242.924	0.5531
243.285	0.5347
243.646	0.5404
244.007	0.5323
244.368	0.5401
244.728	0.5289
245.089	0.5314
245.45	0.5257
245.81	0.5258
246.171	0.5207
246.531	0.5235
246.891	0.5186
247.252	0.5184
247.612	0.5189
247.972	0.5149
248.332	0.5144
248.692	0.5171
249.051	0.5135
249.411	0.515
249.771	0.5107
250.13	0.5069
250.49	0.5112
250.849	0.5027
251.208	0.5076
251.568	0.5088
251.927	0.5002
252.286	0.5075
252.645	0.5031
253.004	0.5064
253.363	0.5026
253.721	0.496
254.08	0.505
254.439	0.4989
254.797	0.4966
255.155	0.5029
255.514	0.4975
255.872	0.4973
256.23	0.4969
256.588	0.4967
256.946	0.4997
257.304	0.4946
257.662	0.4964
258.02	0.4972
258.377	0.4912
258.735	0.4902
259.093	0.4869
259.45	0.4926
259.807	0.4887
260.165	0.4902
260.522	0.4884
260.879	0.4831
261.236	0.4808
261.593	0.4797
261.95	0.4776
262.306	0.482
262.663	0.4791
263.02	0.4773
263.376	0.4748
263.733	0.4738
264.089	0.4697
264.445	0.4702
264.802	0.4688
265.158	0.4666
265.514	0.4665
265.87	0.463
266.226	0.4595
266.581	0.4643
266.937	0.4613
267.293	0.4531
267.648	0.4574
268.004	0.4537
268.359	0.4468
268.714	0.4474
269.07	0.4466
269.425	0.4436
269.78	0.4431
270.135	0.4382
270.49	0.4375
270.844	0.4393
271.199	0.4326
271.554	0.4282
271.908	0.4276
272.263	0.4297
272.617	0.4263
272.972	0.4189
273.326	0.4198
273.68	0.416
274.034	0.4122
274.388	0.4123
274.742	0.4087
275.096	0.4006
275.45	0.4022
275.803	0.3998
276.157	0.3918
276.51	0.3909
276.864	0.3894
277.217	0.3873
277.571	0.3854
277.924	0.38
278.277	0.3757
278.63	0.3706
278.983	0.3725
279.336	0.3654
279.688	0.3626
280.041	0.3598
280.394	0.354
280.746	0.3537
281.099	0.3494
281.451	0.3439
281.803	0.3439
282.156	0.3375
282.508	0.3358
282.86	0.3319
283.212	0.3279
283.564	0.3244
283.916	0.3196
284.267	0.3159
284.619	0.3159
284.971	0.3133
285.322	0.3085
285.673	0.3045
286.025	0.3004
286.376	0.2997
286.727	0.2935
287.078	0.2924
287.429	0.2893
287.78	0.2859
288.131	0.2804
288.482	0.2778
288.833	0.274
289.183	0.2722
289.534	0.269
289.884	0.267
290.235	0.2615
290.585	0.2597
290.935	0.2541
291.285	0.2505
291.635	0.2506
291.985	0.2467
292.335	0.2419
292.685	0.2407
293.035	0.2356
293.384	0.2326
293.734	0.2296
294.083	0.2264
294.433	0.2245
294.782	0.2215
295.131	0.2166
295.48	0.2167
295.829	0.2127
296.179	0.2102
296.527	0.2053
296.876	0.2033
297.225	0.1995
297.574	0.1971
297.922	0.1948
298.271	0.1922
298.619	0.1885
298.968	0.1872
299.316	0.1842
299.664	0.1819
300.012	0.1801
300.36	0.1759
300.708	0.1734
301.056	0.1711
301.404	0.169
301.752	0.167
302.099	0.1641
302.447	0.1624
302.794	0.1598
303.142	0.1578
303.489	0.1553
303.836	0.1541
304.183	0.1518
304.531	0.1511
304.878	0.1488
305.224	0.1467
305.571	0.1451
305.918	0.1431
306.265	0.1419
306.611	0.1406
306.958	0.1403
307.304	0.1387
307.651	0.1373
307.997	0.1361
308.343	0.1343
308.689	0.1336
309.035	0.1337
309.381	0.1314
309.727	0.1299
310.073	0.1301
310.419	0.1291
310.764	0.1289
311.11	0.128
311.455	0.1272
311.801	0.127
312.146	0.1254
312.491	0.1255
312.837	0.1256
313.182	0.1242
313.527	0.1238
313.872	0.124
314.216	0.1243
314.561	0.1234
314.906	0.1237
315.251	0.1241
315.595	0.1236
315.94	0.123
316.284	0.1233
316.628	0.1233
316.972	0.1235
317.317	0.1241
317.661	0.1248
318.005	0.1242
318.348	0.1244
318.692	0.1247
319.036	0.1257
319.38	0.1259
319.723	0.1253
320.067	0.1265
320.41	0.1277
320.754	0.1275
321.097	0.1268
321.44	0.1287
321.783	0.1295
322.126	0.1303
322.469	0.1311
322.812	0.1321
323.155	0.1331
323.498	0.1333
323.84	0.1339
324.183	0.1344
324.525	0.1358
324.868	0.1374
325.21	0.1377
325.552	0.1379
325.894	0.1398
326.236	0.1399
326.578	0.1413
326.92	0.1418
327.262	0.1428
327.604	0.1434
327.946	0.1451
328.287	0.1453
328.629	0.1467
328.97	0.1473
329.312	0.1494
329.653	0.1497
329.994	0.151
330.335	0.152
330.676	0.1537
331.017	0.1546
331.358	0.156
331.699	0.157
332.04	0.1576
332.38	0.1585
332.721	0.1604
333.061	0.1606
333.402	0.1622
333.742	0.1635
334.083	0.1637
334.423	0.1646
334.763	0.1663
335.103	0.1663
335.443	0.1678
335.783	0.1691
336.123	0.1696
336.462	0.1701
336.802	0.1714
337.141	0.1726
337.481	0.1733
337.82	0.1739
338.16	0.1746
338.499	0.1756
338.838	0.1767
339.177	0.1776
339.516	0.1785
339.855	0.1792
340.194	0.1805
340.533	0.1801
340.872	0.1803
341.21	0.1826
341.549	0.1821
341.887	0.1839
342.226	0.1832
342.564	0.1835
342.902	0.1844
343.24	0.1845
343.578	0.185
343.916	0.1849
344.254	0.1859
344.592	0.1863
344.93	0.1871
345.268	0.186
345.605	0.187
345.943	0.1866
346.28	0.1868
346.618	0.1867
346.955	0.1869
347.292	0.1877
347.629	0.1877
347.966	0.1871
348.303	0.1874
348.64	0.1883
348.977	0.1872
349.314	0.1875
349.65	0.1879
349.987	0.1871
350.324	0.1869
350.66	0.1875
350.996	0.1872
351.333	0.1874
351.669	0.186
352.005	0.1868
352.341	0.1856
352.677	0.1845
353.013	0.1832
353.349	0.184
353.685	0.1825
354.02	0.1818
354.356	0.181
354.691	0.1802
355.027	0.18
355.362	0.1786
355.697	0.1779
356.033	0.1774
356.368	0.176
356.703	0.1757
357.038	0.1755
357.373	0.1741
357.707	0.1742
358.042	0.1724
358.377	0.1723
358.711	0.1721
359.046	0.1705
359.38	0.1701
359.715	0.1695
360.049	0.1688
360.383	0.1667
360.717	0.1661
361.051	0.165
361.385	0.1649
361.719	0.1635
362.053	0.1626
362.387	0.1603
362.72	0.1602
363.054	0.1588
363.387	0.1568
363.721	0.1562
364.054	0.1546
364.387	0.1526
364.721	0.1515
365.054	0.1503
365.387	0.1491
365.72	0.1485
366.053	0.1466
366.385	0.1455
366.718	0.145
367.051	0.1439
367.383	0.1423
367.716	0.1424
368.048	0.1411
368.381	0.1407
368.713	0.1382
369.045	0.1377
369.377	0.1362
369.709	0.1358
370.041	0.1346
370.373	0.1333
370.705	0.1329
371.037	0.1307
371.368	0.13
371.7	0.1287
372.031	0.1279
372.363	0.126
372.694	0.1249
373.025	0.1234
373.356	0.1224
373.688	0.1208
374.019	0.1198
374.35	0.1173
374.68	0.1165
375.011	0.1148
375.342	0.1134
375.673	0.1117
376.003	0.1101
376.334	0.1091
376.664	0.1081
376.995	0.1066
377.325	0.1049
377.655	0.1037
377.985	0.1022
378.315	0.1018
378.645	0.1009
378.975	0.1002
379.305	0.0987
379.635	0.0985
379.964	0.097
380.294	0.0967
380.623	0.0946
380.953	0.0944
381.282	0.0941
381.611	0.0924
381.941	0.0917
382.27	0.0899
382.599	0.09
382.928	0.0881
383.257	0.0867
383.585	0.0866
383.914	0.0841
384.243	0.0836
384.571	0.0824
384.9	0.0815
385.228	0.0799
385.557	0.0791
385.885	0.0776
386.213	0.0764
386.541	0.0748
386.869	0.0747
387.197	0.0731
387.525	0.072
387.853	0.0708
388.181	0.0697
388.508	0.0683
388.836	0.068
389.164	0.0667
389.491	0.0659
389.818	0.0646
390.146	0.0637
390.473	0.063
390.8	0.0629
391.127	0.0613
391.454	0.0603
391.781	0.0597
392.108	0.059
392.435	0.0574
392.761	0.0577
393.088	0.0571
393.415	0.0571
393.741	0.0563
394.067	0.0558
394.394	0.0546
394.72	0.0543
395.046	0.053
395.372	0.0527
395.698	0.0524
396.024	0.0512
396.35	0.0504
396.676	0.0498
397.001	0.0492
397.327	0.0484
397.653	0.0478
397.978	0.0474
398.303	0.046
398.629	0.0456
398.954	0.0451
399.279	0.0451
399.604	0.0439
399.929	0.0439
400.254	0.0432
400.579	0.0427
400.904	0.0419
401.229	0.0414
401.553	0.0416
401.878	0.0412
402.202	0.0408
402.527	0.0403
402.851	0.0404
403.175	0.039
403.5	0.0384
403.824	0.0384
404.148	0.0384
404.472	0.0382
404.796	0.0382
405.119	0.0378
405.443	0.0371
405.767	0.0369
406.09	0.0373
406.414	0.0367
406.737	0.0375
407.061	0.0367
407.384	0.0365
407.707	0.0353
408.03	0.0355
408.353	0.0357
408.676	0.0362
408.999	0.0354
409.322	0.0345
409.645	0.0351
409.968	0.0349
410.29	0.0349
410.613	0.0353
410.935	0.0342
411.258	0.0347
411.58	0.0334
411.902	0.0337
412.224	0.0342
412.546	0.0343
412.868	0.0349
413.19	0.0347
413.512	0.0341
413.834	0.0342
414.156	0.0345
414.477	0.0337
414.799	0.0345
415.121	0.0337
415.442	0.0339
415.763	0.0334
416.085	0.0345
416.406	0.0336
416.727	0.0337
417.048	0.0343
417.369	0.0333
417.69	0.0331
418.011	0.0334
418.331	0.0332
418.652	0.0337
418.973	0.0332
419.293	0.0331
419.614	0.0325
419.934	0.0339
420.254	0.0336
420.574	0.0326
420.895	0.0329
421.215	0.0331
421.535	0.0329
421.855	0.0327
422.174	0.0316
422.494	0.0328
422.814	0.0329
423.134	0.0334
423.453	0.033
423.773	0.0337
424.092	0.0335
424.411	0.0332
424.731	0.0332
425.05	0.0334
425.369	0.0329
425.688	0.0334
426.007	0.0338
426.326	0.0334
426.644	0.033
426.963	0.0335
427.282	0.0328
427.6	0.0335
427.919	0.0332
428.237	0.0334
428.556	0.0335
428.874	0.0334
429.192	0.0333
429.51	0.0329
429.828	0.0339
430.146	0.0335
430.464	0.0329
430.782	0.0333
431.1	0.0328
431.418	0.0331
431.735	0.0326
432.053	0.0328
432.37	0.0329
432.688	0.0324
433.005	0.0325
433.322	0.0341
433.639	0.0332
433.957	0.0334
434.274	0.0334
434.591	0.0333
434.907	0.0328
435.224	0.0337
435.541	0.0336
435.858	0.0342
436.174	0.0336
436.491	0.033
436.807	0.0331
437.124	0.0325
437.44	0.0327
437.756	0.0334
438.072	0.0325
438.388	0.0327
438.704	0.0328
439.02	0.0327
439.336	0.0318
439.652	0.0331
439.968	0.0322
440.283	0.033
440.599	0.0332
440.914	0.0328
441.23	0.0323
441.545	0.0324
441.86	0.0322
442.175	0.0327
442.491	0.0317
442.806	0.0321
443.121	0.0313
443.435	0.0317
443.75	0.0323
444.065	0.0319
444.38	0.0314
444.694	0.0314
445.009	0.0315
445.323	0.0318
445.638	0.0315
445.952	0.0313
446.266	0.0311
446.58	0.0305
446.894	0.0313
447.208	0.0311
447.522	0.0305
447.836	0.0313
448.15	0.0307
448.464	0.0304
448.777	0.0305
449.091	0.0302
449.404	0.0299
449.718	0.0303
450.031	0.0296
450.345	0.0304
450.658	0.0294
450.971	0.0303
451.284	0.0291
451.597	0.0305
451.91	0.0299
452.223	0.0297
452.535	0.0296
452.848	0.0291
453.161	0.0296
453.473	0.0294
453.786	0.0288
454.098	0.0294
454.411	0.0287
454.723	0.0293
455.035	0.0286
455.347	0.0279
455.659	0.0287
455.971	0.0289
456.283	0.0291
456.595	0.0293
456.907	0.0291
457.218	0.029
457.53	0.0271
457.841	0.0279
458.153	0.0279
458.464	0.0278
458.776	0.0274
459.087	0.028
459.398	0.0272
459.709	0.0269
460.02	0.0274
460.331	0.0277
460.642	0.0268
460.953	0.0264
461.263	0.0265
461.574	0.0256
461.885	0.0268
462.195	0.0261
462.506	0.0268
462.816	0.0268
463.126	0.0265
463.437	0.0262
463.747	0.0252
464.057	0.0247
464.367	0.0242
464.677	0.0251
464.987	0.0254
465.296	0.0241
465.606	0.0242
465.916	0.0241
466.225	0.0238
466.535	0.024
466.844	0.0244
467.154	0.0242
467.463	0.0238
467.772	0.0235
468.081	0.0235
468.39	0.0238
468.699	0.0237
469.008	0.0234
469.317	0.0236
469.626	0.0235
469.935	0.0229
470.243	0.0232
470.552	0.0227
470.86	0.0227
471.169	0.0226
471.477	0.0216
471.785	0.0216
472.093	0.0216
472.402	0.0215
472.71	0.0206
473.018	0.0207
473.326	0.0216
473.633	0.0215
473.941	0.0207
474.249	0.0203
474.556	0.0198
474.864	0.0202
475.171	0.0207
475.479	0.0198
475.786	0.0206
476.094	0.0191
476.401	0.0199
476.708	0.0197
477.015	0.0193
477.322	0.0183
477.629	0.0184
477.936	0.0187
478.242	0.0186
478.549	0.0183
478.856	0.0177
479.162	0.0185
479.469	0.0182
479.775	0.0179
480.081	0.0175
480.388	0.0169
480.694	0.0169
481	0.0167
481.306	0.0173
481.612	0.0174
481.918	0.0179
482.224	0.0176
482.53	0.0171
482.835	0.0163
483.141	0.0167
483.446	0.017
483.752	0.0163
484.057	0.0154
484.363	0.0153
484.668	0.0157
484.973	0.0149
485.278	0.0147
485.583	0.014
485.888	0.0148
486.193	0.0138
486.498	0.0145
486.803	0.0144
487.107	0.0141
487.412	0.0132
487.717	0.0135
488.021	0.0139
488.325	0.0127
488.63	0.0138
488.934	0.014
489.238	0.0131
489.542	0.0129
489.846	0.0136
490.15	0.0131
490.454	0.0133
490.758	0.0122
491.062	0.0132
491.366	0.0125
491.669	0.012
491.973	0.0125
492.276	0.0123
492.58	0.0108
492.883	0.0118
493.186	0.0116
493.489	0.0119
493.792	0.0109
494.096	0.0105
494.399	0.0111
494.701	0.0109
495.004	0.01
495.307	0.0107
495.61	0.0108
495.912	0.0111
496.215	0.0103
496.517	0.011
496.82	0.0105
497.122	0.0102
497.424	0.0095
497.727	0.0102
498.029	0.0094
498.331	0.0101
498.633	0.0091
498.935	0.0094
499.237	0.0094
499.538	0.0094
499.84	0.0094
500.142	0.0092
500.443	0.0095
500.745	0.0096
501.046	0.0088
501.348	0.0079
501.649	0.0077
501.95	0.0086
502.251	0.0085
502.552	0.0079
502.853	0.0084
503.154	0.0079
503.455	0.0082
503.756	0.008
504.057	0.0071
504.357	0.0073
504.658	0.0074
504.958	0.0063
505.259	0.007
505.559	0.0073
505.859	0.0062
506.16	0.0061
506.46	0.0066
506.76	0.0062
507.06	0.0055
507.36	0.0063
507.66	0.0063
507.96	0.0082
508.259	0.0064
508.559	0.006
508.859	0.0064
509.158	0.0069
509.457	0.0061
509.757	0.0059
510.056	0.0053
510.355	0.0053
510.655	0.0056
510.954	0.0051
511.253	0.0058
511.552	0.0061
511.851	0.0056
512.149	0.0052
512.448	0.004
512.747	0.0051
513.045	0.0052
513.344	0.0046
513.642	0.0047
513.941	0.0053
514.239	0.0052
514.537	0.0049
514.836	0.005
515.134	0.0046
515.432	0.0051
515.73	0.0049
516.028	0.0045
516.326	0.0039
516.623	0.0028
516.921	0.004
517.219	0.0047
517.516	0.0029
517.814	0.0048
518.111	0.0037
518.409	0.0042
518.706	0.0047
519.003	0.003
519.3	0.0035
519.597	0.0043
519.894	0.0035
520.191	0.005
520.488	0.0052
520.785	0.0044
521.082	0.004
521.378	0.0048
521.675	0.0031
521.971	0.0027
522.268	0.0042
522.564	0.004
522.861	0.0048
523.157	0.0038
523.453	0.0039
523.749	0.0035
524.045	0.004
524.341	0.0036
524.637	0.0031
524.933	0.0044
525.229	0.003
525.524	0.0032
525.82	0.0033
526.115	0.0026
526.411	0.0034
526.706	0.0027
527.002	0.0032
527.297	0.0015
527.592	0.0038
527.887	0.0029
528.182	0.0024
528.477	0.0031
528.772	0.0021
529.067	0.0035
529.362	0.0034
529.657	0.0026
529.951	0.0036
530.246	0.0022
530.54	0.0025
530.835	0.0026
531.129	0.0029
531.423	0.0024
531.718	0.0029
532.012	0.0021
532.306	0.0028
532.6	0.0023
532.894	0.0029
533.188	0.0021
533.482	0.0027
533.775	0.0016
534.069	0.0032
534.363	0.0025
534.656	0.0014
534.95	0.0027
535.243	0.0025
535.536	0.0018
535.83	0.002
536.123	0.0014
536.416	0.0026
536.709	0.0027
537.002	0.0035
537.295	0.0028
537.588	0.0029
537.881	0.0027
538.173	0.0021
538.466	0.0027
538.759	0.0029
539.051	0.0024
539.344	0.0021
539.636	0.0028
539.928	0.0037
540.22	0.0017
540.513	0.003
540.805	0.0035
541.097	0.003
541.389	0.0028
541.681	0.0029
541.972	0.0023
542.264	0.0037
542.556	0.0035
542.847	0.0029
543.139	0.0038
543.431	0.0024
543.722	0.0022
544.013	0.0031
544.305	0.0038
544.596	0.0028
544.887	0.0031
545.178	0.003
545.469	0.0035
545.76	0.003
546.051	0.0041
546.342	0.0023
546.632	0.0033
546.923	0.003
547.214	0.0016
547.504	0.0029
547.795	0.0025
548.085	0.0023
548.375	0.0029
548.666	0.0034
548.956	0.0029
549.246	0.0047
549.536	0.0029
549.826	0.0041
550.116	0.0031
550.406	0.0032
550.695	0.0037
550.985	0.0031
551.275	0.0044
551.564	0.004
551.854	0.0035
552.143	0.0034
552.433	0.0025
552.722	0.0036
553.011	0.0037
553.3	0.0035
553.589	0.0039
553.879	0.0028
554.167	0.0039
554.456	0.0026
554.745	0.0032
555.034	0.0052
555.323	0.0033
555.611	0.0035
555.9	0.0038
556.188	0.0034
556.477	0.0029
556.765	0.0026
557.053	0.0032
557.342	0.0029
557.63	0.0028
557.918	0.0045
558.206	0.0037
558.494	0.0048
558.782	0.0034
559.069	0.0045
559.357	0.0029
559.645	0.0042
559.932	0.0036
560.22	0.0038
560.507	0.0018
560.795	0.0012
561.082	0.002
561.37	0.0029
561.657	0.0022
561.944	0.0026
562.231	0.0021
562.518	0.0035
562.805	0.004
563.092	0.0027
563.379	0.0026
563.665	0.0034
563.952	0.0038
564.239	0.0044
564.525	0.0041
564.811	0.0033
565.098	0.0029
565.384	0.0025
565.67	0.0038
565.957	0.0033
566.243	0.0037
566.529	0.0028
566.815	0.0034
567.101	0.0027
567.387	0.0029
567.672	0.0019
567.958	0.002
568.244	0.001
568.529	0.0021
568.815	0.0029
569.1	0.0028
569.386	0.0033
569.671	0.0027
569.956	0.0024
570.242	0.0022
570.527	0.0027
570.812	0.0022
571.097	0.0008
571.382	0.0017
571.666	0.0014
571.951	0.0032
572.236	0.0016
572.521	0.0024
572.805	0.0036
573.09	0.0024
573.374	0.0022
573.659	0.0015
573.943	0.0022
574.227	0.0032
574.511	0.0025
574.795	0.002
575.079	0.0027
575.363	0.0022
575.647	0.0021
575.931	0.0025
576.215	0.0023
576.499	0.0017
576.782	0.002
577.066	0.0015
577.349	0.0026
577.633	0.0026
577.916	0.0025
578.2	0.0024
578.483	0.0027
578.766	0.0029
579.049	0.002
579.332	0.0029
579.615	0.0021
579.898	0.0011
580.181	0.0029
580.464	0.0023
580.746	0.0021
581.029	0.0032
581.312	0.0015
581.594	0.0014
581.877	0.0018
582.159	0.0031
582.441	0.0016
582.724	0.0025
583.006	0.0029
583.288	0.003
583.57	0.0026
583.852	0.0039
584.134	0.0032
584.416	0.0023
584.697	0.0025
584.979	0.0022
585.261	0.002
585.542	0.0024
585.824	0.0027
586.105	0.0029
586.387	0.003
586.668	0.0028
586.949	0.0033
587.231	0.0031
587.512	0.0031
587.793	0.0023
588.074	0.0022
588.355	0.0031
588.636	0.0021
588.916	0.0022
589.197	0.0025
589.478	0.0029
589.758	0.0025
590.039	0.0015
590.319	0.001
590.6	0.0025
590.88	0.0017
591.16	0.0021
591.441	0.0025
591.721	0.0017
592.001	0.0015
592.281	0.0023
592.561	0.003
592.841	0.0025
593.12	0.0021
593.4	0.003
593.68	0.0022
593.959	0.003
594.239	0.0029
594.518	0.0037
594.798	0.0035
595.077	0.0025
595.356	0.0022
595.636	0.0029
595.915	0.0016
596.194	0.0023
596.473	0.003
596.752	0.0019
597.031	0.0029
597.31	0.0016
597.588	0.0017
597.867	0.0019
598.146	0.0012
598.424	0.0009
598.703	0.0014
598.981	0.0011
599.259	0.0008
599.538	0.0027
599.816	0.0028
600.094	0.0023
600.372	0.002
600.65	0.0027
600.928	0.0028
601.206	0.0024
601.484	0.0029
601.762	0.0028
602.04	0.0034
602.317	0.0029
602.595	0.0035
602.872	0.0029
603.15	0.004
603.427	0.0008
603.704	0.0016
603.982	0.0016
604.259	0.0016
604.536	0.0021
604.813	0.0021
605.09	0.0019
605.367	0.0014
605.644	0.001
605.921	0.0011
606.197	0.0009
606.474	0.0017
606.751	0.002
607.027	0.0015
607.304	0.0022
607.58	0.0014
607.856	0.0023
608.133	0.0038
608.409	0.0034
608.685	0.0027
608.961	0.0031
609.237	0.0029
609.513	0.0035
609.789	0.0023
610.065	0.0021
610.341	0.0019
610.616	0.002
610.892	0.0022
611.167	0.0026
611.443	0.0028
611.718	0.0036
611.994	0.0028
612.269	0.0024
612.544	0.0025
612.819	0.0017
613.095	0.0017
613.37	0.0017
613.645	0.0017
613.919	0.0019
614.194	0.0026
614.469	0.0023
614.744	0.002
615.019	0.001
615.293	0.0018
615.568	0.0014
615.842	0.0011
616.116	0.0011
616.391	0.0011
616.665	-0.0003
616.939	0.0007
617.213	0.0008
617.488	0.0009
617.762	0.0017
618.035	0.0028
618.309	0.0009
618.583	0.0016
618.857	0.003
619.131	0.0025
619.404	0.0018
619.678	0.0029
619.951	0.0025
620.225	0.0013
620.498	0.0012
620.771	0.0017
621.045	0.0022
621.318	0.0025
621.591	0.0028
621.864	0.0018
622.137	0.0009
622.41	0.0013
622.683	0.0009
622.956	0.0006
623.228	0.0018
623.501	0.0017
623.774	0.002
624.046	0.002
624.319	0.0011
624.591	0.0007
624.863	0.0013
625.136	0.0022
625.408	0.0035
625.68	0.0031
625.952	0.0026
626.224	0.0027
626.496	0.0028
626.768	0.002
627.04	0.0022
627.311	0.0017
627.583	0.0024
627.855	0.0027
628.126	0.0015
628.398	0.0014
628.669	0.0017
628.941	0.0003
629.212	0.0005
629.483	0.0009
629.755	0.0011
630.026	0.0017
630.297	0.0016
630.568	0.0022
630.839	0.0022
631.11	0.0013
631.38	0.0019
631.651	0.0015
631.922	0.0019
632.192	0.0011
632.463	0.0019
632.733	-0
633.004	0.0013
633.274	0.0007
633.545	0.0007
633.815	0.0027
634.085	0.0019
634.355	0.0014
634.625	0.0019
634.895	0.0029
635.165	0.0015
635.435	0.0029
635.705	0.0022
635.974	0.0021
636.244	0.0015
636.514	-0.0001
636.783	0.0011
637.053	0.0018
637.322	0.0017
637.591	0.0015
637.861	0.0003
638.13	0.0003
638.399	0.0023
638.668	0.0018
638.937	0.0015
639.206	0.003
639.475	0.0029
639.744	0.0019
640.013	0.0025
640.281	0.0018
640.55	0.0023
640.819	0.0017
641.087	0.0019
641.356	0.0017
641.624	0.001
641.892	0.002
642.161	0.002
642.429	0.0024
642.697	0.0023
642.965	0.0012
643.233	0.0003
643.501	0.0003
643.769	0.001
644.037	0.0001
644.305	0.0002
644.572	0.0002
644.84	0.0002
645.108	0.0014
645.375	0.0017
645.643	0.0015
645.91	0.0023
646.177	0.0012
646.445	0.0014
646.712	0.0018
646.979	0.0017
647.246	0.0028
647.513	0.0021
647.78	0.0022
648.047	0.0003
648.314	-0.0004
648.58	-0.0012
648.847	-0.0017
649.114	-0.0019
649.38	-0.0016
649.647	-0.0016
649.913	-0.0007
650.18	0.0005
650.446	0.0011
650.712	0.0018
650.978	0.0025
651.245	0.0024
651.511	0.0033
651.777	0.0033
652.043	0.0019
652.309	0.0017
652.574	0.0017
652.84	0.0021
653.106	0.003
653.371	0.0032
653.637	0.0025
653.903	0.0017
654.168	0.0027
654.433	0.0012
654.699	0.0011
654.964	0.0001
655.229	0.0001
655.494	0.001
655.759	-0.0004
656.024	-0
656.289	-0
656.554	0.001
656.819	0.0016
657.084	0.0029
657.349	0.0028
657.613	0.002
657.878	0.0011
658.142	0.0006
658.407	0.0011
658.671	0.0015
658.936	0.0018
659.2	0.0027
659.464	0.0019
659.728	0.0011
659.992	0.0004
660.256	-0.0007
660.52	-0.0003
660.784	-0.0005
661.048	0.0005
661.312	0.0004
661.575	0.0005
661.839	0.0017
662.103	0.0013
662.366	0.0008
662.63	0.0018
662.893	0.0005
663.156	0.0017
663.42	0.0027
663.683	0.0014
663.946	0.0027
664.209	0.0028
664.472	0.0023
664.735	0.0025
664.998	0.0023
665.261	0.0029
665.524	0.0025
665.786	0.0025
666.049	0.0026
666.312	0.0022
666.574	0.0018
666.837	0.0037
667.099	0.003
667.361	0.0035
667.624	0.0035
667.886	0.0023
668.148	0.003
668.41	0.0031
668.672	0.0033
668.934	0.0039
669.196	0.0018
669.458	0.001
669.72	0.0014
669.982	0.0009
670.243	0.0015
670.505	0.0015
670.766	0.0006
671.028	0.0024
671.289	0.0024
671.551	0.0018
671.812	0.0005
672.073	0.0023
672.334	0.0015
672.596	0.0008
672.857	0.002
673.118	0.0022
673.379	0.0036
673.639	0.0024
673.9	0.0027
674.161	0.0011
674.422	0.0021
674.682	0.0009
674.943	0.0005
675.203	0.0009
675.464	0.0016
675.724	0.0011
675.985	0.0011
676.245	0.0016
676.505	-0
676.765	0.0001
677.025	0.0013
677.285	-0.0002
677.545	0.0009
677.805	-0.0004
678.065	0.0008
678.325	0.0012
678.585	0.0032
678.844	0.0029
679.104	0.0036
679.363	0.0047
679.623	0.0041
679.882	0.0046
680.142	0.0038
680.401	0.0047
680.66	0.0046
680.919	0.0026
681.178	0.0038
681.437	0.0037
681.696	0.0027
681.955	0.0048
682.214	0.0042
682.473	0.0053
682.732	0.0015
682.99	0.0046
683.249	0.0043
683.508	0.0043
683.766	0.0037
684.024	0.0024
684.283	0.0018
684.541	0.0019
684.799	0.0004
685.058	-0.0004
685.316	-0.001
685.574	-0.0012
685.832	-0.0007
686.09	0.0002
686.348	-0.0014
686.606	-0.0009
686.863	-0.0013
687.121	0.0001
687.379	-0.0009
687.636	-0.0022
687.894	-0.0018
688.151	-0.0014
688.409	-0.0014
688.666	-0.0007
688.923	-0.0007
689.181	-0.0003
689.438	-0.001
689.695	-0.0007
689.952	-0.0008
690.209	-0.0002
690.466	-0.0006
690.723	-0.0009
690.979	-0.0008
691.236	-0.0011
691.493	-0.0021
691.75	-0.0012
692.006	-0.0009
692.263	-0.0016
692.519	-0.0007
692.775	-0.0028
693.032	-0.0026
693.288	-0.0029
693.544	-0.0019
693.8	-0.001
694.056	-0.0006
694.313	-0.0021
694.568	-0.0003
694.824	-0.0009
695.08	-0.0009
695.336	0.0002
695.592	-0.0003
695.847	0.0011
696.103	0.0016
696.359	0.0031
696.614	0.0021
696.869	0.0004
697.125	-0.0012
697.38	-0.0011
697.635	0.0001
697.891	0.0006
698.146	0.0011
698.401	0.0013
698.656	0.0008
698.911	0.0016
699.166	0.0011
699.42	0.0029
699.675	0.003
699.93	0.002
700.185	0.0032
700.439	0.0018
700.694	0.0026
700.948	0.0014
701.203	0.0018
701.457	0.0017
701.711	0.0012
701.965	0.0003
702.22	0.0004
702.474	0.0006
702.728	0.0002
702.982	0.0003
703.236	0.0001
703.49	0.0003
703.743	0
703.997	0.0002
704.251	-0.0001
704.504	0.0016
704.758	0.0014
705.012	0.0022
705.265	0.0024
705.518	0.0023
705.772	0.0029
706.025	0.0025
706.278	0.0024
706.531	0.0009
706.785	-0.0003
707.038	-0.001
707.291	-0.0005
707.543	-0.001
707.796	-0.0005
708.049	0.0003
708.302	-0.0001
708.555	-0.0007
708.807	0.0004
709.06	0.0007
709.312	0.0015
709.565	0.0009
709.817	0.0032
710.069	0.0018
710.322	0.0021
710.574	0.0021
710.826	0.0016
711.078	0.0012
711.33	0.0015
711.582	0.0012
711.834	0.0007
712.086	0.0011
712.338	0.0014
712.59	0.0004
712.841	-0.0007
713.093	-0.0004
713.344	0.0009
713.596	-0.0009
713.847	-0.001
714.099	-0.0001
714.35	-0.0003
714.601	-0.0016
714.853	-0.002
715.104	-0.0014
715.355	-0.0014
715.606	-0.0002
715.857	0.0004
716.108	0.0015
716.359	0.0013
716.609	0.0005
716.86	0.0009
717.111	0.0007
717.361	0.0006
717.612	0.0005
717.863	0.0013
718.113	0.002
718.363	0.0013
718.614	0.0015
718.864	0.0016
719.114	0.0007
719.364	0.0003
719.614	0.0001
719.865	0.0004
720.114	0.0008
720.364	0.0004
720.614	-0.0003
720.864	-0.0006
721.114	-0.0016
721.364	-0.0015
721.613	-0.0015
721.863	-0.0017
722.112	-0.0014
722.362	-0.0006
722.611	0.0001
722.86	0.0006
723.11	0.002
723.359	0.0021
723.608	0.0018
723.857	0.0032
724.106	0.0023
724.355	0.0025
724.604	0.0017
724.853	0.0009
725.102	-0.0005
725.351	-0.0013
725.599	-0.003
725.848	-0.002
726.097	-0.0012
726.345	-0.0016
726.594	-0.0008
726.842	0.0001
727.09	-0.0004
727.339	-0.0012
727.587	-0.0017
727.835	-0.0023
728.083	-0.003
728.331	-0.0026
728.579	-0.0016
728.827	-0.0021
729.075	-0.0032
729.323	-0.0028
729.571	-0.003
729.818	-0.0032
730.066	-0.0024
730.314	-0.0022
730.561	-0.002
730.809	-0.0034
731.056	-0.0027
731.303	-0.0024
731.551	-0.0022
731.798	-0.0028
732.045	-0.001
732.292	-0.0014
732.539	-0.0022
732.786	-0.002
733.033	-0.0038
733.28	-0.0023
733.527	-0.0019
733.774	-0.0029
734.021	-0.0024
734.267	-0.0019
734.514	-0.0023
734.76	-0.0019
735.007	-0.0011
735.253	-0.0003
735.5	0.0011
735.746	0.0019
735.992	0.0015
736.238	0.0012
736.485	0.0012
736.731	0.0012
736.977	0.0002
737.223	-0.0002
737.469	-0.0007
737.715	0.0002
737.96	0.0002
738.206	0.0005
738.452	-0.0004
738.697	-0.0004
738.943	-0.0009
739.189	-0.0001
739.434	-0.0005
739.679	0.0004
739.925	0.0015
740.17	0.0029
740.415	0.0017
740.66	0.0021
740.906	0.0016
741.151	0.0024
741.396	0.0009
741.641	0.0005
741.886	0.0013
742.13	0.0008
742.375	0.0009
742.62	-0.0005
742.865	-0.0002
743.109	0.0009
743.354	-0.0005
743.598	-0.0011
743.843	-0.0016
744.087	-0.0023
744.331	-0.0014
744.576	-0.0006
744.82	-0.0012
745.064	-0.0005
745.308	0.0007
745.552	-0.0002
745.796	-0.0014
746.04	-0.0011
746.284	-0.0013
746.528	-0.0005
746.771	-0.0006
747.015	-0.0005
747.259	-0.0017
747.502	-0.0019
747.746	-0.0011
747.989	-0.0006
748.233	0.0004
748.476	0.0004
748.719	0.0008
748.963	0.0005
749.206	0.0006
749.449	0.0005
749.692	-0.0003
749.935	0.0004
750.178	0.0002
750.421	-0
750.664	-0.0004
750.906	0.0007
751.149	-0.0008
751.392	0.0002
751.635	-0.0001
751.877	-0.0004
752.12	-0.0001
752.362	0.0016
752.604	0.0009
752.847	0.0001
753.089	0.0009
753.331	0.0004
753.573	0.0008
753.816	0.0003
754.058	0.0004
754.3	0.0003
754.542	0.0018
754.783	0.0014
755.025	0.002
755.267	0.002
755.509	0.0017
755.75	0.0001
755.992	0.0012
756.234	0.0013
756.475	0.0019
756.716	0.0005
756.958	0.0003
757.199	0.0002
757.44	0.0008
757.682	0.0006
757.923	0.0009
758.164	0.002
758.405	0.0014
758.646	0.0012
758.887	0.0005
759.128	0.0001
759.369	-0.0006
759.609	-0.001
759.85	0.0002
760.091	-0.0005
760.331	0.0005
760.572	0.0008
760.812	-0.0003
761.053	-0.0005
761.293	0.0009
761.533	0.0012
761.774	0.0015
762.014	0.0017
762.254	0.0012
762.494	0.0009
762.734	0.0009
762.974	0.0018
763.214	0.0009
763.454	0.0015
763.694	0.0014
763.933	0.0026
764.173	0.0036
764.413	0.0038
764.652	0.0013
764.892	0.0009
765.131	0.0005
765.371	0.001
765.61	-0.0003
765.849	-0.0015
766.089	-0.0019
766.328	-0.001
766.567	-0.0016
766.806	-0.0023
767.045	-0.0034
767.284	-0.0019
767.523	-0.0017
767.762	-0.002
768.001	-0.0017
768.239	-0.0016
768.478	-0.002
768.717	-0.0028
768.955	-0.0029
769.194	-0.0018
769.432	-0.0014
769.671	-0.0013
769.909	-0.0009
770.148	-0.0014
770.386	-0.001
770.624	-0.0006
770.862	-0.0012
771.1	-0.0013
771.338	-0.0009
771.576	-0.0003
771.814	0.0001
772.052	-0
772.29	0.0004
772.528	0.0001
772.765	-0.0005
773.003	-0.0006
773.24	0.0004
773.478	0.0004
773.716	0.0013
773.953	0.0013
774.19	0.0022
774.428	0.0032
774.665	0.0028
774.902	0.0032
775.139	0.0025
775.376	0.0019
775.613	0.002
775.85	0.0025
776.087	0.0013
776.324	0.0009
776.561	-0.0005
776.798	0.0001
777.034	-0.0002
777.271	0.0006
777.508	0.0002
777.744	0.0018
777.981	0.0014
778.217	0.0002
778.454	-0.0003
778.69	-0.0004
778.926	-0.0007
779.162	-0.0001
779.399	0.0007
779.635	-0.0003
779.871	-0.0003
780.107	-0.0013
780.343	-0.0015
780.579	-0.0009
780.814	-0.0003
781.05	-0.0003
781.286	-0.0012
781.522	-0.0013
781.757	-0.0019
781.993	-0.0006
782.228	-0.0014
782.464	-0.0001
782.699	0.0004
782.934	-0.0004
783.17	-0.0003
783.405	0.0002
783.64	-0.0005
783.875	-0.0011
784.11	-0.0016
784.345	-0.0003
784.58	-0.0002
784.815	0.0002
785.05	-0.001
785.285	-0.0016
785.52	-0.0005
785.754	-0.0001
785.989	0
786.223	0.0015
786.458	0.0021
786.692	0.0033
786.927	0.0044
787.161	0.0038
787.396	0.0048
787.63	0.0033
787.864	0.0022
788.098	0.0004
788.332	0.0008
788.566	0.0004
788.8	-0.001
789.034	0.0005
789.268	-0.0007
789.502	-0.0007
789.736	0.0003
789.969	0
790.203	0.0002
790.437	0.001
790.67	0.0017
790.904	0.0023
791.137	0.0021
791.37	0.0023
791.604	0.0025
791.837	0.0032
792.07	0.0036
792.303	0.0039
792.537	0.0048
792.77	0.0044
793.003	0.0035
793.236	0.0028
793.469	0.0021
793.701	0.0024
793.934	0.0015
794.167	0.0006
794.4	0.0002
794.632	-0.0004
794.865	-0.0005
795.097	-0.0012
795.33	-0.0011
795.562	-0.0014
795.795	-0.001
796.027	-0.0013
796.259	0.0006
796.491	-0.0001
796.724	0.001
796.956	0.0019
797.188	0.0007
797.42	0.0016
797.652	0.0012
797.883	0.002
798.115	0.002
798.347	0.0018
798.579	0.0021
798.81	0.0022
799.042	0.0025
799.274	0.0036
799.505	0.0024
799.737	0.0023
799.968	0.0018
800.199	0.0019
800.431	0.0025
800.662	0.0016
800.893	0.0019
801.124	0.0022
801.355	0.0027
801.586	0.0035
801.817	0.0042
802.048	0.004
802.279	0.0041
802.51	0.0039
802.741	0.0054
802.971	0.0053
803.202	0.003
803.433	0.0032
803.663	0.0028
803.894	0.0034
804.124	0.0035
804.354	0.0038
804.585	0.0049
804.815	0.0043
805.045	0.0052
805.275	0.0032
805.506	0.0145
805.736	-0.089
805.966	-0.1029
806.196	-0.1614
