Data from 03 0.4 mM K2Cr2O7 0.25 M BQDS 1 M H2SO4 5 min_Absorbance_0229.txt Node
Date: Wed Dec 15 12:35:13 EST 2021
User: kwabilab-user
Spectrometer: HDX00518
Trigger mode: 0
Integration Time (sec): 5.000000E-2
Scans to average: 50
Nonlinearity correction enabled: false
Boxcar width: 0
Storing dark spectrum: false
XAxis mode: Wavelengths
Number of Pixels in Spectrum: 2068
>>>>>Begin Spectral Data<<<<<
195.27	-0.2906
195.642	0.1068
196.014	-0.2663
196.386	-0.2283
196.758	-0.0804
197.129	-0.0151
197.501	-0.0343
197.872	0.0114
198.244	-0.0052
198.615	0.0232
198.986	0.0001
199.357	0.0284
199.728	0.0306
200.099	0.014
200.47	0.021
200.841	0.0243
201.212	0.0165
201.582	0.0374
201.953	0.0336
202.323	-0.0005
202.694	0.0184
203.064	-0.0034
203.434	-0.0066
203.804	0.0061
204.174	0.0118
204.544	0.0031
204.914	0.0118
205.284	-0.0105
205.653	-0.0052
206.023	0.0167
206.393	0.006
206.762	0.0031
207.131	0.0317
207.501	0.0024
207.87	0.0284
208.239	0.0014
208.608	0.0164
208.977	0.0022
209.346	-0.0031
209.715	0.0155
210.083	0.0118
210.452	0.01
210.82	0.0179
211.189	0.0058
211.557	0.0139
211.925	-0.0015
212.294	0.0111
212.662	0.0238
213.03	0.0036
213.398	0.0191
213.766	0.0112
214.133	0.0078
214.501	0.0074
214.869	0.0116
215.236	0.0099
215.604	0.0109
215.971	0.0377
216.338	0.0251
216.705	0.0217
217.072	0.0208
217.439	0.0252
217.806	0.0318
218.173	0.0453
218.54	0.034
218.907	0.0542
219.273	0.0506
219.64	0.0661
220.006	0.078
220.373	0.0797
220.739	0.0966
221.105	0.1165
221.471	0.105
221.837	0.1536
222.203	0.1627
222.569	0.1916
222.935	0.1964
223.3	0.2182
223.666	0.23
224.031	0.2536
224.397	0.2946
224.762	0.3166
225.127	0.3291
225.493	0.3542
225.858	0.3841
226.223	0.3999
226.588	0.4071
226.952	0.4234
227.317	0.4465
227.682	0.4591
228.046	0.4677
228.411	0.4853
228.775	0.5157
229.14	0.5157
229.504	0.5354
229.868	0.5393
230.232	0.539
230.596	0.557
230.96	0.5751
231.324	0.5744
231.688	0.5735
232.052	0.5867
232.415	0.5827
232.779	0.5885
233.142	0.5991
233.505	0.6044
233.869	0.5808
234.232	0.6016
234.595	0.6028
234.958	0.6032
235.321	0.5979
235.684	0.5896
236.047	0.5837
236.409	0.5833
236.772	0.5852
237.134	0.5876
237.497	0.5818
237.859	0.5894
238.222	0.5737
238.584	0.5712
238.946	0.5654
239.308	0.5601
239.67	0.5662
240.032	0.5637
240.393	0.5546
240.755	0.5538
241.117	0.557
241.478	0.5518
241.84	0.5405
242.201	0.5451
242.562	0.5375
242.924	0.5302
243.285	0.5256
243.646	0.5273
244.007	0.5261
244.368	0.5244
244.728	0.5188
245.089	0.5137
245.45	0.5107
245.81	0.5071
246.171	0.5065
246.531	0.5055
246.891	0.5011
247.252	0.4972
247.612	0.5035
247.972	0.4957
248.332	0.494
248.692	0.4996
249.051	0.485
249.411	0.4909
249.771	0.4879
250.13	0.4883
250.49	0.4872
250.849	0.4834
251.208	0.4867
251.568	0.4864
251.927	0.4818
252.286	0.4844
252.645	0.481
253.004	0.4799
253.363	0.4745
253.721	0.4814
254.08	0.4794
254.439	0.4738
254.797	0.4726
255.155	0.4697
255.514	0.4706
255.872	0.4682
256.23	0.4688
256.588	0.4712
256.946	0.4722
257.304	0.4676
257.662	0.467
258.02	0.4685
258.377	0.4616
258.735	0.4634
259.093	0.4588
259.45	0.4586
259.807	0.4645
260.165	0.459
260.522	0.4604
260.879	0.4519
261.236	0.4565
261.593	0.4544
261.95	0.4503
262.306	0.451
262.663	0.4474
263.02	0.4516
263.376	0.4433
263.733	0.4439
264.089	0.447
264.445	0.4407
264.802	0.4375
265.158	0.4321
265.514	0.4338
265.87	0.4346
266.226	0.4365
266.581	0.4329
266.937	0.4321
267.293	0.4259
267.648	0.4249
268.004	0.4251
268.359	0.4205
268.714	0.4148
269.07	0.4197
269.425	0.4159
269.78	0.4079
270.135	0.4113
270.49	0.4062
270.844	0.4066
271.199	0.408
271.554	0.403
271.908	0.3982
272.263	0.4018
272.617	0.3969
272.972	0.3931
273.326	0.3911
273.68	0.3865
274.034	0.3892
274.388	0.386
274.742	0.382
275.096	0.379
275.45	0.3778
275.803	0.3743
276.157	0.3716
276.51	0.3662
276.864	0.368
277.217	0.3653
277.571	0.361
277.924	0.3568
278.277	0.3557
278.63	0.3507
278.983	0.3484
279.336	0.3427
279.688	0.3421
280.041	0.3377
280.394	0.3317
280.746	0.3313
281.099	0.3282
281.451	0.3264
281.803	0.3222
282.156	0.3178
282.508	0.3149
282.86	0.3136
283.212	0.3103
283.564	0.3057
283.916	0.3028
284.267	0.2991
284.619	0.2982
284.971	0.2937
285.322	0.2902
285.673	0.2875
286.025	0.2836
286.376	0.2808
286.727	0.2748
287.078	0.2729
287.429	0.2729
287.78	0.2678
288.131	0.2663
288.482	0.2617
288.833	0.2583
289.183	0.2565
289.534	0.253
289.884	0.2506
290.235	0.2463
290.585	0.244
290.935	0.2396
291.285	0.2381
291.635	0.2332
291.985	0.2326
292.335	0.229
292.685	0.2249
293.035	0.2207
293.384	0.2184
293.734	0.2152
294.083	0.2123
294.433	0.2112
294.782	0.2091
295.131	0.2047
295.48	0.2023
295.829	0.1994
296.179	0.1961
296.527	0.1928
296.876	0.1908
297.225	0.1868
297.574	0.1846
297.922	0.1815
298.271	0.1783
298.619	0.1761
298.968	0.1743
299.316	0.1724
299.664	0.1708
300.012	0.1671
300.36	0.1637
300.708	0.1618
301.056	0.1594
301.404	0.1584
301.752	0.1551
302.099	0.153
302.447	0.1503
302.794	0.1488
303.142	0.147
303.489	0.145
303.836	0.1433
304.183	0.1415
304.531	0.1394
304.878	0.1381
305.224	0.136
305.571	0.1357
305.918	0.1336
306.265	0.1307
306.611	0.1291
306.958	0.1299
307.304	0.1287
307.651	0.1267
307.997	0.1249
308.343	0.1243
308.689	0.1228
309.035	0.1229
309.381	0.1218
309.727	0.1201
310.073	0.1193
310.419	0.119
310.764	0.1185
311.11	0.1179
311.455	0.117
311.801	0.1162
312.146	0.1155
312.491	0.1157
312.837	0.1151
313.182	0.1141
313.527	0.1142
313.872	0.1136
314.216	0.1135
314.561	0.1134
314.906	0.1133
315.251	0.1139
315.595	0.1136
315.94	0.1134
316.284	0.1131
316.628	0.113
316.972	0.1131
317.317	0.1132
317.661	0.1138
318.005	0.1141
318.348	0.1139
318.692	0.1143
319.036	0.1147
319.38	0.1155
319.723	0.1149
320.067	0.1164
320.41	0.1173
320.754	0.1173
321.097	0.1165
321.44	0.1181
321.783	0.1187
322.126	0.1199
322.469	0.1193
322.812	0.1205
323.155	0.1208
323.498	0.1219
323.84	0.1223
324.183	0.1227
324.525	0.1241
324.868	0.1257
325.21	0.1259
325.552	0.1267
325.894	0.1284
326.236	0.1279
326.578	0.1294
326.92	0.1307
327.262	0.1301
327.604	0.1322
327.946	0.1324
328.287	0.1333
328.629	0.135
328.97	0.1356
329.312	0.1367
329.653	0.137
329.994	0.1383
330.335	0.1397
330.676	0.1409
331.017	0.1414
331.358	0.143
331.699	0.1437
332.04	0.145
332.38	0.1452
332.721	0.1466
333.061	0.1477
333.402	0.1481
333.742	0.1496
334.083	0.151
334.423	0.1511
334.763	0.1525
335.103	0.1531
335.443	0.1537
335.783	0.1552
336.123	0.1552
336.462	0.1568
336.802	0.1575
337.141	0.1585
337.481	0.1585
337.82	0.1599
338.16	0.161
338.499	0.1616
338.838	0.1623
339.177	0.1639
339.516	0.1636
339.855	0.1647
340.194	0.1658
340.533	0.1657
340.872	0.1669
341.21	0.1672
341.549	0.1677
341.887	0.1685
342.226	0.1688
342.564	0.1689
342.902	0.1702
343.24	0.1701
343.578	0.1706
343.916	0.1696
344.254	0.1714
344.592	0.1717
344.93	0.1713
345.268	0.1707
345.605	0.1724
345.943	0.172
346.28	0.172
346.618	0.1721
346.955	0.1717
347.292	0.173
347.629	0.1722
347.966	0.1728
348.303	0.1726
348.64	0.1731
348.977	0.1724
349.314	0.1738
349.65	0.1723
349.987	0.1733
350.324	0.1727
350.66	0.1725
350.996	0.1723
351.333	0.172
351.669	0.1719
352.005	0.1716
352.341	0.171
352.677	0.1704
353.013	0.1695
353.349	0.1692
353.685	0.1676
354.02	0.1674
354.356	0.167
354.691	0.1663
355.027	0.1659
355.362	0.1638
355.697	0.1642
356.033	0.1641
356.368	0.1632
356.703	0.1624
357.038	0.1616
357.373	0.1607
357.707	0.1603
358.042	0.1593
358.377	0.1591
358.711	0.1586
359.046	0.1566
359.38	0.157
359.715	0.1564
360.049	0.1551
360.383	0.1542
360.717	0.153
361.051	0.1524
361.385	0.1518
361.719	0.1504
362.053	0.1502
362.387	0.1474
362.72	0.1478
363.054	0.1461
363.387	0.1451
363.721	0.1435
364.054	0.1423
364.387	0.141
364.721	0.1394
365.054	0.1391
365.387	0.1373
365.72	0.137
366.053	0.1354
366.385	0.134
366.718	0.1336
367.051	0.1317
367.383	0.1313
367.716	0.1308
368.048	0.1301
368.381	0.1298
368.713	0.1273
369.045	0.127
369.377	0.1263
369.709	0.1252
370.041	0.1242
370.373	0.1231
370.705	0.1227
371.037	0.1209
371.368	0.1198
371.7	0.1186
372.031	0.1174
372.363	0.1163
372.694	0.1154
373.025	0.1137
373.356	0.1127
373.688	0.1112
374.019	0.1104
374.35	0.1083
374.68	0.1076
375.011	0.105
375.342	0.1052
375.673	0.1034
376.003	0.1015
376.334	0.1007
376.664	0.0992
376.995	0.0984
377.325	0.0969
377.655	0.0954
377.985	0.095
378.315	0.0937
378.645	0.0932
378.975	0.0922
379.305	0.0903
379.635	0.0905
379.964	0.0894
380.294	0.0887
380.623	0.0874
380.953	0.0861
381.282	0.0856
381.611	0.085
381.941	0.0841
382.27	0.0833
382.599	0.0827
382.928	0.0813
383.257	0.0806
383.585	0.0792
383.914	0.0779
384.243	0.0768
384.571	0.0755
384.9	0.0751
385.228	0.073
385.557	0.0731
385.885	0.0713
386.213	0.0709
386.541	0.0695
386.869	0.0687
387.197	0.0667
387.525	0.0658
387.853	0.0644
388.181	0.0638
388.508	0.0632
388.836	0.0618
389.164	0.061
389.491	0.0605
389.818	0.0589
390.146	0.0588
390.473	0.0578
390.8	0.0572
391.127	0.0564
391.454	0.0555
391.781	0.0552
392.108	0.0536
392.435	0.0529
392.761	0.0526
393.088	0.0519
393.415	0.0519
393.741	0.0519
394.067	0.0515
394.394	0.0507
394.72	0.0498
395.046	0.0486
395.372	0.0487
395.698	0.0471
396.024	0.0465
396.35	0.0464
396.676	0.0457
397.001	0.0455
397.327	0.0437
397.653	0.0428
397.978	0.043
398.303	0.0419
398.629	0.0413
398.954	0.0412
399.279	0.0411
399.604	0.0401
399.929	0.0402
400.254	0.0397
400.579	0.0388
400.904	0.0384
401.229	0.0377
401.553	0.0374
401.878	0.0375
402.202	0.0378
402.527	0.0366
402.851	0.0366
403.175	0.0356
403.5	0.036
403.824	0.0353
404.148	0.0354
404.472	0.0346
404.796	0.0348
405.119	0.034
405.443	0.0336
405.767	0.0339
406.09	0.034
406.414	0.0332
406.737	0.0335
407.061	0.0333
407.384	0.0339
407.707	0.0334
408.03	0.0321
408.353	0.032
408.676	0.0325
408.999	0.0329
409.322	0.0316
409.645	0.0322
409.968	0.0321
410.29	0.0327
410.613	0.0329
410.935	0.0312
411.258	0.0323
411.58	0.0311
411.902	0.0315
412.224	0.0315
412.546	0.0319
412.868	0.0323
413.19	0.031
413.512	0.0311
413.834	0.0311
414.156	0.0315
414.477	0.0308
414.799	0.0315
415.121	0.0307
415.442	0.0312
415.763	0.0306
416.085	0.0315
416.406	0.0309
416.727	0.031
417.048	0.0312
417.369	0.0313
417.69	0.0306
418.011	0.0309
418.331	0.0307
418.652	0.0311
418.973	0.0308
419.293	0.0307
419.614	0.0306
419.934	0.0314
420.254	0.0307
420.574	0.0298
420.895	0.0302
421.215	0.0306
421.535	0.0303
421.855	0.0299
422.174	0.0296
422.494	0.0301
422.814	0.0302
423.134	0.0306
423.453	0.0307
423.773	0.0311
424.092	0.0308
424.411	0.0304
424.731	0.0306
425.05	0.0309
425.369	0.0307
425.688	0.0305
426.007	0.0304
426.326	0.0309
426.644	0.0304
426.963	0.0304
427.282	0.0298
427.6	0.0308
427.919	0.0309
428.237	0.0308
428.556	0.0309
428.874	0.0307
429.192	0.0306
429.51	0.0306
429.828	0.0301
430.146	0.0307
430.464	0.0299
430.782	0.0304
431.1	0.0295
431.418	0.0307
431.735	0.0295
432.053	0.031
432.37	0.0305
432.688	0.03
433.005	0.0301
433.322	0.0312
433.639	0.0309
433.957	0.0307
434.274	0.0316
434.591	0.0309
434.907	0.0306
435.224	0.03
435.541	0.0305
435.858	0.0311
436.174	0.0308
436.491	0.0297
436.807	0.0295
437.124	0.0299
437.44	0.0298
437.756	0.0306
438.072	0.0296
438.388	0.0297
438.704	0.0304
439.02	0.0294
439.336	0.0291
439.652	0.0296
439.968	0.0301
440.283	0.0303
440.599	0.0297
440.914	0.03
441.23	0.0298
441.545	0.0296
441.86	0.0294
442.175	0.0301
442.491	0.0291
442.806	0.0297
443.121	0.0292
443.435	0.0288
443.75	0.0287
444.065	0.0284
444.38	0.0291
444.694	0.0286
445.009	0.0286
445.323	0.0291
445.638	0.0287
445.952	0.0287
446.266	0.0288
446.58	0.0272
446.894	0.0285
447.208	0.028
447.522	0.0276
447.836	0.0281
448.15	0.0276
448.464	0.0275
448.777	0.0283
449.091	0.0272
449.404	0.0275
449.718	0.0274
450.031	0.0264
450.345	0.0276
450.658	0.0272
450.971	0.0274
451.284	0.0269
451.597	0.0273
451.91	0.0264
452.223	0.0268
452.535	0.0276
452.848	0.0262
453.161	0.0263
453.473	0.0264
453.786	0.0265
454.098	0.0264
454.411	0.0265
454.723	0.0271
455.035	0.026
455.347	0.0256
455.659	0.0266
455.971	0.0267
456.283	0.0266
456.595	0.0265
456.907	0.0257
457.218	0.0261
457.53	0.0254
457.841	0.0254
458.153	0.0251
458.464	0.0252
458.776	0.0251
459.087	0.0252
459.398	0.0248
459.709	0.0239
460.02	0.0251
460.331	0.0246
460.642	0.0241
460.953	0.024
461.263	0.0242
461.574	0.023
461.885	0.0244
462.195	0.0235
462.506	0.0239
462.816	0.0243
463.126	0.0236
463.437	0.0234
463.747	0.0226
464.057	0.0217
464.367	0.0215
464.677	0.0224
464.987	0.0223
465.296	0.0214
465.606	0.022
465.916	0.0213
466.225	0.0212
466.535	0.0219
466.844	0.0218
467.154	0.0224
467.463	0.0219
467.772	0.0207
468.081	0.0218
468.39	0.0213
468.699	0.0215
469.008	0.0215
469.317	0.0208
469.626	0.0209
469.935	0.0207
470.243	0.021
470.552	0.0204
470.86	0.0205
471.169	0.0199
471.477	0.019
471.785	0.0195
472.093	0.0191
472.402	0.0192
472.71	0.019
473.018	0.0182
473.326	0.0191
473.633	0.0193
473.941	0.0188
474.249	0.0192
474.556	0.0188
474.864	0.0185
475.171	0.0183
475.479	0.0174
475.786	0.0185
476.094	0.0183
476.401	0.0177
476.708	0.0174
477.015	0.0173
477.322	0.0161
477.629	0.0166
477.936	0.0172
478.242	0.0164
478.549	0.0164
478.856	0.0168
479.162	0.0167
479.469	0.0161
479.775	0.0168
480.081	0.0155
480.388	0.0157
480.694	0.0157
481	0.0151
481.306	0.0156
481.612	0.0155
481.918	0.0165
482.224	0.0157
482.53	0.015
482.835	0.0156
483.141	0.0154
483.446	0.015
483.752	0.0142
484.057	0.0135
484.363	0.0136
484.668	0.0143
484.973	0.0136
485.278	0.0132
485.583	0.0126
485.888	0.0123
486.193	0.0115
486.498	0.0129
486.803	0.0133
487.107	0.0114
487.412	0.0111
487.717	0.0122
488.021	0.0124
488.325	0.012
488.63	0.0123
488.934	0.012
489.238	0.0109
489.542	0.0112
489.846	0.0118
490.15	0.0109
490.454	0.012
490.758	0.0113
491.062	0.0111
491.366	0.011
491.669	0.0112
491.973	0.0111
492.276	0.0104
492.58	0.01
492.883	0.0109
493.186	0.0099
493.489	0.0112
493.792	0.0086
494.096	0.0095
494.399	0.0102
494.701	0.01
495.004	0.009
495.307	0.0098
495.61	0.0091
495.912	0.01
496.215	0.0091
496.517	0.0099
496.82	0.0087
497.122	0.0088
497.424	0.0092
497.727	0.0084
498.029	0.009
498.331	0.0095
498.633	0.0077
498.935	0.0082
499.237	0.0087
499.538	0.008
499.84	0.0084
500.142	0.0075
500.443	0.0076
500.745	0.0084
501.046	0.0078
501.348	0.0069
501.649	0.0073
501.95	0.0067
502.251	0.0084
502.552	0.0062
502.853	0.0076
503.154	0.0079
503.455	0.0064
503.756	0.0069
504.057	0.0068
504.357	0.0069
504.658	0.0068
504.958	0.0059
505.259	0.0064
505.559	0.0058
505.859	0.0056
506.16	0.0058
506.46	0.0064
506.76	0.0049
507.06	0.0051
507.36	0.0057
507.66	0.0056
507.96	0.0064
508.259	0.0048
508.559	0.0058
508.859	0.0055
509.158	0.0057
509.457	0.0045
509.757	0.0048
510.056	0.0046
510.355	0.006
510.655	0.0049
510.954	0.005
511.253	0.0051
511.552	0.0046
511.851	0.004
512.149	0.0053
512.448	0.0043
512.747	0.0039
513.045	0.004
513.344	0.0048
513.642	0.004
513.941	0.0047
514.239	0.004
514.537	0.0042
514.836	0.0045
515.134	0.0039
515.432	0.004
515.73	0.0038
516.028	0.0037
516.326	0.0032
516.623	0.0034
516.921	0.0035
517.219	0.0046
517.516	0.003
517.814	0.0043
518.111	0.0037
518.409	0.0039
518.706	0.0048
519.003	0.0031
519.3	0.0026
519.597	0.0039
519.894	0.0033
520.191	0.0052
520.488	0.0044
520.785	0.0029
521.082	0.0046
521.378	0.0043
521.675	0.0033
521.971	0.0042
522.268	0.0041
522.564	0.0036
522.861	0.0037
523.157	0.0037
523.453	0.0037
523.749	0.0037
524.045	0.0031
524.341	0.0035
524.637	0.0031
524.933	0.0041
525.229	0.0034
525.524	0.0028
525.82	0.0034
526.115	0.0032
526.411	0.0038
526.706	0.0031
527.002	0.0027
527.297	0.0024
527.592	0.0037
527.887	0.0027
528.182	0.0025
528.477	0.004
528.772	0.003
529.067	0.0029
529.362	0.0032
529.657	0.0031
529.951	0.0039
530.246	0.0025
530.54	0.0036
530.835	0.0022
531.129	0.004
531.423	0.0034
531.718	0.0037
532.012	0.0032
532.306	0.0031
532.6	0.0027
532.894	0.0023
533.188	0.0029
533.482	0.0033
533.775	0.003
534.069	0.0028
534.363	0.0019
534.656	0.003
534.95	0.0029
535.243	0.0018
535.536	0.0023
535.83	0.002
536.123	0.0013
536.416	0.0026
536.709	0.0025
537.002	0.0034
537.295	0.0021
537.588	0.0033
537.881	0.002
538.173	0.0027
538.466	0.0026
538.759	0.0027
539.051	0.0027
539.344	0.0029
539.636	0.002
539.928	0.0038
540.22	0.002
540.513	0.0029
540.805	0.0038
541.097	0.0026
541.389	0.0021
541.681	0.0034
541.972	0.0015
542.264	0.0033
542.556	0.0032
542.847	0.0023
543.139	0.0035
543.431	0.0023
543.722	0.0025
544.013	0.0022
544.305	0.0022
544.596	0.0017
544.887	0.0034
545.178	0.0036
545.469	0.0031
545.76	0.0027
546.051	0.0035
546.342	0.0028
546.632	0.0032
546.923	0.0028
547.214	0.0022
547.504	0.003
547.795	0.0029
548.085	0.0035
548.375	0.0035
548.666	0.0046
548.956	0.0034
549.246	0.0049
549.536	0.004
549.826	0.0049
550.116	0.0042
550.406	0.0034
550.695	0.0035
550.985	0.0044
551.275	0.0045
551.564	0.0055
551.854	0.0049
552.143	0.0044
552.433	0.004
552.722	0.0042
553.011	0.004
553.3	0.0038
553.589	0.0041
553.879	0.0041
554.167	0.0037
554.456	0.0033
554.745	0.0044
555.034	0.0049
555.323	0.0029
555.611	0.0037
555.9	0.0032
556.188	0.0027
556.477	0.0027
556.765	0.0034
557.053	0.0033
557.342	0.0027
557.63	0.0032
557.918	0.004
558.206	0.0038
558.494	0.0037
558.782	0.0039
559.069	0.0049
559.357	0.0035
559.645	0.0043
559.932	0.0029
560.22	0.0025
560.507	0.0022
560.795	0.0017
561.082	0.0017
561.37	0.0035
561.657	0.0025
561.944	0.0024
562.231	0.0024
562.518	0.0033
562.805	0.0043
563.092	0.0017
563.379	0.0025
563.665	0.0026
563.952	0.0041
564.239	0.004
564.525	0.0028
564.811	0.004
565.098	0.0033
565.384	0.0029
565.67	0.0043
565.957	0.005
566.243	0.0047
566.529	0.0038
566.815	0.0039
567.101	0.004
567.387	0.0037
567.672	0.003
567.958	0.0022
568.244	0.0017
568.529	0.003
568.815	0.0025
569.1	0.0028
569.386	0.0028
569.671	0.0019
569.956	0.0021
570.242	0.0023
570.527	0.0021
570.812	0.0017
571.097	0.0014
571.382	0.001
571.666	0.0015
571.951	0.0021
572.236	0.0018
572.521	0.0033
572.805	0.0038
573.09	0.0024
573.374	0.0013
573.659	0.0017
573.943	0.0018
574.227	0.002
574.511	0.0015
574.795	0.0023
575.079	0.0022
575.363	0.0024
575.647	0.0019
575.931	0.0027
576.215	0.003
576.499	0.0017
576.782	0.0019
577.066	0.0025
577.349	0.0029
577.633	0.0022
577.916	0.0022
578.2	0.0025
578.483	0.0025
578.766	0.0037
579.049	0.0025
579.332	0.0033
579.615	0.0016
579.898	0.0021
580.181	0.002
580.464	0.0026
580.746	0.0023
581.029	0.0032
581.312	0.001
581.594	0.0007
581.877	0.002
582.159	0.0036
582.441	0.0019
582.724	0.0035
583.006	0.0035
583.288	0.0034
583.57	0.0025
583.852	0.0039
584.134	0.0033
584.416	0.0024
584.697	0.0023
584.979	0.0013
585.261	0.0019
585.542	0.0026
585.824	0.0028
586.105	0.0027
586.387	0.0034
586.668	0.003
586.949	0.0038
587.231	0.0028
587.512	0.003
587.793	0.0027
588.074	0.003
588.355	0.0031
588.636	0.0024
588.916	0.003
589.197	0.0024
589.478	0.0031
589.758	0.0022
590.039	0.0016
590.319	0.002
590.6	0.0018
590.88	0.0014
591.16	0.0019
591.441	0.0035
591.721	0.002
592.001	0.0018
592.281	0.0022
592.561	0.0026
592.841	0.0017
593.12	0.002
593.4	0.0028
593.68	0.0027
593.959	0.0029
594.239	0.0038
594.518	0.0041
594.798	0.0038
595.077	0.0023
595.356	0.0027
595.636	0.003
595.915	0.0029
596.194	0.0034
596.473	0.0031
596.752	0.0029
597.031	0.0026
597.31	0.0022
597.588	0.0026
597.867	0.0019
598.146	0.0023
598.424	0.0011
598.703	0.0021
598.981	0.0009
599.259	0.0013
599.538	0.0026
599.816	0.0024
600.094	0.002
600.372	0.0019
600.65	0.0037
600.928	0.0028
601.206	0.0024
601.484	0.003
601.762	0.0036
602.04	0.0041
602.317	0.0043
602.595	0.0042
602.872	0.0031
603.15	0.0036
603.427	0.0013
603.704	0.0017
603.982	0.0013
604.259	0.0012
604.536	0.0014
604.813	0.0026
605.09	0.0018
605.367	0.0014
605.644	0.0013
605.921	0.0015
606.197	0.0009
606.474	0.002
606.751	0.0016
607.027	0.0013
607.304	0.002
607.58	0.0021
607.856	0.0022
608.133	0.0038
608.409	0.0036
608.685	0.0034
608.961	0.0036
609.237	0.0034
609.513	0.0045
609.789	0.0025
610.065	0.0024
610.341	0.0023
610.616	0.0032
610.892	0.0033
611.167	0.0029
611.443	0.0034
611.718	0.003
611.994	0.0025
612.269	0.0019
612.544	0.0027
612.819	0.0019
613.095	0.0022
613.37	0.0008
613.645	0.0013
613.919	0.0035
614.194	0.0017
614.469	0.0022
614.744	0.0009
615.019	0.0016
615.293	0.0018
615.568	0.0016
615.842	0.0016
616.116	0.0017
616.391	0.0014
616.665	0.0003
616.939	0.0008
617.213	0.001
617.488	0.0019
617.762	0.0024
618.035	0.0028
618.309	0.0019
618.583	0.003
618.857	0.0035
619.131	0.0031
619.404	0.0026
619.678	0.0034
619.951	0.0025
620.225	0.001
620.498	0.0015
620.771	0.0019
621.045	0.0025
621.318	0.003
621.591	0.0019
621.864	0.0011
622.137	0.001
622.41	0.0014
622.683	0.0021
622.956	0.0018
623.228	0.0021
623.501	0.0034
623.774	0.0035
624.046	0.0033
624.319	0.002
624.591	0.003
624.863	0.0023
625.136	0.0038
625.408	0.0043
625.68	0.0034
625.952	0.003
626.224	0.0036
626.496	0.0038
626.768	0.0037
627.04	0.0042
627.311	0.0037
627.583	0.0039
627.855	0.0045
628.126	0.0032
628.398	0.0035
628.669	0.0033
628.941	0.0016
629.212	0.0013
629.483	0.0016
629.755	0.002
630.026	0.0031
630.297	0.0025
630.568	0.0033
630.839	0.0042
631.11	0.0037
631.38	0.0039
631.651	0.0036
631.922	0.0033
632.192	0.0031
632.463	0.0039
632.733	0.002
633.004	0.0037
633.274	0.003
633.545	0.0024
633.815	0.0044
634.085	0.0035
634.355	0.0033
634.625	0.0044
634.895	0.0041
635.165	0.004
635.435	0.0046
635.705	0.0037
635.974	0.0027
636.244	0.003
636.514	0.0022
636.783	0.0028
637.053	0.0028
637.322	0.0028
637.591	0.0028
637.861	0.0024
638.13	0.0022
638.399	0.0035
638.668	0.0033
638.937	0.0045
639.206	0.0046
639.475	0.0045
639.744	0.0041
640.013	0.0039
640.281	0.0039
640.55	0.003
640.819	0.0037
641.087	0.003
641.356	0.0041
641.624	0.0043
641.892	0.0052
642.161	0.004
642.429	0.0038
642.697	0.0041
642.965	0.0033
643.233	0.0021
643.501	0.0025
643.769	0.0027
644.037	0.0021
644.305	0.0027
644.572	0.0029
644.84	0.0026
645.108	0.0041
645.375	0.0038
645.643	0.0039
645.91	0.0032
646.177	0.0028
646.445	0.0023
646.712	0.0024
646.979	0.003
647.246	0.005
647.513	0.0043
647.78	0.0049
648.047	0.0022
648.314	0.0015
648.58	-0.0001
648.847	0.0002
649.114	-0.0007
649.38	-0.0002
649.647	-0.0004
649.913	0.0006
650.18	0.0019
650.446	0.0031
650.712	0.0041
650.978	0.0042
651.245	0.0045
651.511	0.0052
651.777	0.0043
652.043	0.0032
652.309	0.0036
652.574	0.0032
652.84	0.0053
653.106	0.0051
653.371	0.0052
653.637	0.0043
653.903	0.0047
654.168	0.0052
654.433	0.0049
654.699	0.0044
654.964	0.0023
655.229	0.0027
655.494	0.0015
655.759	-0.0026
656.024	0.0003
656.289	-0
656.554	0.0026
656.819	0.0036
657.084	0.005
657.349	0.0046
657.613	0.0053
657.878	0.0032
658.142	0.0027
658.407	0.0024
658.671	0.0031
658.936	0.0024
659.2	0.0031
659.464	0.0036
659.728	0.0037
659.992	0.0029
660.256	0.0012
660.52	0.0009
660.784	0.0017
661.048	0.003
661.312	0.0032
661.575	0.0031
661.839	0.0043
662.103	0.0037
662.366	0.0028
662.63	0.0031
662.893	0.002
663.156	0.0027
663.42	0.0046
663.683	0.0038
663.946	0.0045
664.209	0.0045
664.472	0.0038
664.735	0.0049
664.998	0.0059
665.261	0.0057
665.524	0.0054
665.786	0.0048
666.049	0.004
666.312	0.0044
666.574	0.004
666.837	0.006
667.099	0.004
667.361	0.0057
667.624	0.005
667.886	0.0049
668.148	0.0056
668.41	0.0045
668.672	0.0051
668.934	0.0046
669.196	0.0039
669.458	0.0025
669.72	0.003
669.982	0.0034
670.243	0.0027
670.505	0.0027
670.766	0.0025
671.028	0.0032
671.289	0.0034
671.551	0.0028
671.812	0.0015
672.073	0.0032
672.334	0.0026
672.596	0.0028
672.857	0.0033
673.118	0.0049
673.379	0.0054
673.639	0.0056
673.9	0.0051
674.161	0.005
674.422	0.006
674.682	0.0039
674.943	0.0044
675.203	0.005
675.464	0.0046
675.724	0.0036
675.985	0.0032
676.245	0.0024
676.505	0.0022
676.765	0.0019
677.025	0.003
677.285	0.0023
677.545	0.002
677.805	0.001
678.065	0.0028
678.325	0.0027
678.585	0.0045
678.844	0.0049
679.104	0.0054
679.363	0.0064
679.623	0.0056
679.882	0.0062
680.142	0.0061
680.401	0.0061
680.66	0.006
680.919	0.0045
681.178	0.0056
681.437	0.0042
681.696	0.0028
681.955	0.0059
682.214	0.0055
682.473	0.0045
682.732	0.0033
682.99	0.0056
683.249	0.0066
683.508	0.0056
683.766	0.0047
684.024	0.0054
684.283	0.0037
684.541	0.0028
684.799	0.0029
685.058	0.0008
685.316	0.0001
685.574	-0.0004
685.832	0.0007
686.09	0.0014
686.348	0.0005
686.606	0.0013
686.863	0.0019
687.121	0.0025
687.379	0.0013
687.636	0.0008
687.894	0.0025
688.151	0.0015
688.409	0.0025
688.666	0.0029
688.923	0.003
689.181	0.0026
689.438	0.002
689.695	0.0021
689.952	0.0025
690.209	0.0023
690.466	0.001
690.723	0.0013
690.979	0.0018
691.236	0.0009
691.493	-0.0006
691.75	0.0008
692.006	-0.0002
692.263	-0.0009
692.519	-0.0005
692.775	-0.0016
693.032	-0.0013
693.288	-0.0022
693.544	-0.0006
693.8	0.0012
694.056	0.001
694.313	0.0007
694.568	0.002
694.824	0.0013
695.08	0.0014
695.336	0.0017
695.592	0.0003
695.847	0.0032
696.103	0.0039
696.359	0.0046
696.614	0.0037
696.869	0.0017
697.125	-0.0002
697.38	0
697.635	0.0014
697.891	0.0029
698.146	0.0025
698.401	0.0034
698.656	0.0015
698.911	0.0022
699.166	0.0023
699.42	0.0034
699.675	0.0038
699.93	0.0044
700.185	0.005
700.439	0.0038
700.694	0.0031
700.948	0.0026
701.203	0.0029
701.457	0.0026
701.711	0.0025
701.965	0.0016
702.22	0.0013
702.474	0.0012
702.728	0.0005
702.982	0.0017
703.236	0.0019
703.49	0.0018
703.743	0.0016
703.997	0.0021
704.251	0.0017
704.504	0.0009
704.758	0.0005
705.012	0.0017
705.265	0.0024
705.518	0.0025
705.772	0.0028
706.025	0.0038
706.278	0.0035
706.531	0.0021
706.785	0.0002
707.038	-0
707.291	0.0011
707.543	-0
707.796	0.0007
708.049	0.0005
708.302	0
708.555	0.0005
708.807	0.0014
709.06	0.0015
709.312	0.0037
709.565	0.0041
709.817	0.0053
710.069	0.0036
710.322	0.0033
710.574	0.0027
710.826	0.0023
711.078	0.0017
711.33	0.002
711.582	0.0018
711.834	0.0008
712.086	0.0015
712.338	0.0015
712.59	-0.0007
712.841	-0.002
713.093	-0.0009
713.344	0.0008
713.596	-0.0005
713.847	-0.0008
714.099	-0.0005
714.35	0.0013
714.601	-0
714.853	-0.0001
715.104	0.0004
715.355	-0.0008
715.606	0.0011
715.857	0.0018
716.108	0.0031
716.359	0.0035
716.609	0.0027
716.86	0.003
717.111	0.0024
717.361	0.0019
717.612	0.0025
717.863	0.0029
718.113	0.0032
718.363	0.0018
718.614	0.0027
718.864	0.0031
719.114	0.0023
719.364	0.0008
719.614	0.0001
719.865	0.0009
720.114	0.0023
720.364	0.0024
720.614	0.0014
720.864	0.0009
721.114	0.0003
721.364	0.0006
721.613	0.0007
721.863	0.0005
722.112	0.0015
722.362	0.0008
722.611	0.0018
722.86	0.0023
723.11	0.0032
723.359	0.0039
723.608	0.0027
723.857	0.0044
724.106	0.0035
724.355	0.0033
724.604	0.0027
724.853	0.0016
725.102	0.0007
725.351	-0.0006
725.599	-0.0021
725.848	-0.0008
726.097	-0
726.345	-0.0004
726.594	0.0003
726.842	0.0015
727.09	-0.0001
727.339	-0.0003
727.587	0.0006
727.835	0
728.083	-0.0004
728.331	-0.0001
728.579	0.0013
728.827	0.0001
729.075	-0.0013
729.323	-0.0013
729.571	-0.0018
729.818	-0.0021
730.066	-0.0012
730.314	0.0003
730.561	-0.0004
730.809	-0.0021
731.056	-0.0021
731.303	-0.0021
731.551	-0.0009
731.798	-0.0015
732.045	0.0004
732.292	-0.0005
732.539	-0
732.786	-0.0013
733.033	-0.0017
733.28	-0.0013
733.527	-0.0009
733.774	-0.002
734.021	-0.0019
734.267	-0.0011
734.514	-0.0016
734.76	-0.0009
735.007	-0.0012
735.253	-0
735.5	0.001
735.746	0.0019
735.992	0.0018
736.238	0.0019
736.485	0.0017
736.731	0.0028
736.977	0.0009
737.223	0.0002
737.469	0.0014
737.715	0.0021
737.96	0.0026
738.206	0.003
738.452	0.004
738.697	0.0034
738.943	0.0014
739.189	0.0017
739.434	0.0009
739.679	0.0016
739.925	0.0038
740.17	0.0046
740.415	0.0029
740.66	0.0038
740.906	0.0034
741.151	0.0018
741.396	0.0019
741.641	0.0014
741.886	0.0018
742.13	0.0007
742.375	0.0016
742.62	-0.0005
742.865	-0.0005
743.109	0.0005
743.354	-0.0008
743.598	-0.0011
743.843	-0.0025
744.087	-0.0019
744.331	-0.002
744.576	-0.0008
744.82	0.001
745.064	0.0012
745.308	0.0018
745.552	0.0012
745.796	0.0006
746.04	0.0006
746.284	0.0003
746.528	0.001
746.771	0.0014
747.015	0.0016
747.259	-0.0005
747.502	0.0002
747.746	0.0014
747.989	0.0021
748.233	0.003
748.476	0.0028
748.719	0.0024
748.963	0.0015
749.206	0.0012
749.449	0.0007
749.692	0.0004
749.935	0.0014
750.178	0.0016
750.421	0.0007
750.664	0.0014
750.906	0.0019
751.149	0.0014
751.392	0.0021
751.635	0.0019
751.877	0.0023
752.12	0.0017
752.362	0.0032
752.604	0.0029
752.847	0.0023
753.089	0.0019
753.331	0.0021
753.573	0.0011
753.816	0.0025
754.058	0.0026
754.3	0.0029
754.542	0.0036
754.783	0.0032
755.025	0.0033
755.267	0.0023
755.509	0.002
755.75	0.0007
755.992	0.0016
756.234	0.0013
756.475	0.0023
756.716	0.0015
756.958	0.0005
757.199	0.0012
757.44	0.0019
757.682	0.0018
757.923	0.0026
758.164	0.0036
758.405	0.0037
758.646	0.0041
758.887	0.004
759.128	0.0034
759.369	0.0017
759.609	0.0025
759.85	0.002
760.091	0.0023
760.331	0.0026
760.572	0.0018
760.812	0.0015
761.053	0.0021
761.293	0.0033
761.533	0.0037
761.774	0.0042
762.014	0.0043
762.254	0.0035
762.494	0.0035
762.734	0.0031
762.974	0.0022
763.214	0.0023
763.454	0.003
763.694	0.0023
763.933	0.0038
764.173	0.0049
764.413	0.0041
764.652	0.002
764.892	0.002
765.131	0.0013
765.371	0.001
765.61	0.0012
765.849	-0.0001
766.089	0
766.328	0.0003
766.567	-0.0005
766.806	-0.0005
767.045	-0.0009
767.284	0.0005
767.523	0.0002
767.762	-0
768.001	-0
768.239	-0.0005
768.478	-0.001
768.717	-0.0003
768.955	-0.0004
769.194	0.0005
769.432	0.0017
769.671	0.0012
769.909	0.0007
770.148	0.0013
770.386	-0.0003
770.624	0.0005
770.862	-0.0002
771.1	-0.0007
771.338	-0.001
771.576	-0.0005
771.814	0.0006
772.052	0.0009
772.29	0.0015
772.528	0.0013
772.765	0.0008
773.003	0.0011
773.24	0.0015
773.478	0.0019
773.716	0.0032
773.953	0.0022
774.19	0.0026
774.428	0.0031
774.665	0.0042
774.902	0.0032
775.139	0.004
775.376	0.0035
775.613	0.0034
775.85	0.0044
776.087	0.0051
776.324	0.0045
776.561	0.0037
776.798	0.0035
777.034	0.0026
777.271	0.0029
777.508	0.0025
777.744	0.0041
777.981	0.0046
778.217	0.0038
778.454	0.0032
778.69	0.0025
778.926	0.0029
779.162	0.002
779.399	0.0029
779.635	0.0031
779.871	0.0024
780.107	0.0022
780.343	0.0017
780.579	0.0022
780.814	0.0033
781.05	0.0031
781.286	0.0021
781.522	0.0015
781.757	0.0008
781.993	0.002
782.228	0.0007
782.464	0.0019
782.699	0.0017
782.934	0.0007
783.17	0.0018
783.405	0.0019
783.64	0.0018
783.875	0.0007
784.11	0.0008
784.345	0.0015
784.58	0.0024
784.815	0.002
785.05	0.0017
785.285	0.0011
785.52	0.0011
785.754	0.0014
785.989	0.0019
786.223	0.0029
786.458	0.004
786.692	0.0043
786.927	0.0058
787.161	0.0049
787.396	0.0061
787.63	0.0041
787.864	0.0032
788.098	0.0022
788.332	0.0021
788.566	0.002
788.8	0.0016
789.034	0.0021
789.268	0.0018
789.502	0.0021
789.736	0.0025
789.969	0.0032
790.203	0.0027
790.437	0.0033
790.67	0.0043
790.904	0.0055
791.137	0.0064
791.37	0.0066
791.604	0.0067
791.837	0.0068
792.07	0.007
792.303	0.0073
792.537	0.0078
792.77	0.0064
793.003	0.0056
793.236	0.0049
793.469	0.0035
793.701	0.003
793.934	0.0023
794.167	0.0011
794.4	0.0004
794.632	-0.0001
794.865	0.0009
795.097	-0.0001
795.33	0.0007
795.562	0.0004
795.795	0.0008
796.027	0.0015
796.259	0.0023
796.491	0.0016
796.724	0.0018
796.956	0.0015
797.188	0.0021
797.42	0.0017
797.652	0.0013
797.883	0.0019
798.115	0.0028
798.347	0.0034
798.579	0.0033
798.81	0.003
799.042	0.0031
799.274	0.0046
799.505	0.0025
799.737	0.0027
799.968	0.0019
800.199	0.0013
800.431	0.0018
800.662	0.0007
800.893	0.0023
801.124	0.0011
801.355	0.0023
801.586	0.0039
801.817	0.0053
802.048	0.0053
802.279	0.006
802.51	0.0059
802.741	0.007
802.971	0.0078
803.202	0.0051
803.433	0.0045
803.663	0.0039
803.894	0.004
804.124	0.0042
804.354	0.0041
804.585	0.0056
804.815	0.0054
805.045	0.0053
805.275	0.0036
805.506	0.0248
805.736	-0.1198
805.966	-0.2322
806.196	-0.1156
