Data from 03 0.4 mM K2Cr2O7 0.25 M BQDS 1 M H2SO4 5 min_Absorbance_0227.txt Node
Date: Wed Dec 15 12:25:13 EST 2021
User: kwabilab-user
Spectrometer: HDX00518
Trigger mode: 0
Integration Time (sec): 5.000000E-2
Scans to average: 50
Nonlinearity correction enabled: false
Boxcar width: 0
Storing dark spectrum: false
XAxis mode: Wavelengths
Number of Pixels in Spectrum: 2068
>>>>>Begin Spectral Data<<<<<
195.27	-0.2303
195.642	-0.0524
196.014	-0.1891
196.386	-0.083
196.758	-0.0818
197.129	-0.006
197.501	-0.0293
197.872	0.0207
198.244	0.0114
198.615	0.0397
198.986	0.0123
199.357	0.0267
199.728	0.0268
200.099	0.0076
200.47	0.0188
200.841	0.0203
201.212	0.027
201.582	0.0162
201.953	0.0317
202.323	0.018
202.694	0.0048
203.064	0.0177
203.434	-0.0085
203.804	0.0158
204.174	-0.0029
204.544	0.0314
204.914	0.0004
205.284	0.0086
205.653	0.0089
206.023	0.0155
206.393	0.0301
206.762	0.0131
207.131	0.023
207.501	0.0167
207.87	0.0176
208.239	0.005
208.608	0.0135
208.977	0.0153
209.346	0.0063
209.715	0.0103
210.083	-0.0002
210.452	0.0027
210.82	0.0429
211.189	0.0208
211.557	0.0181
211.925	0.012
212.294	0.021
212.662	0.0299
213.03	0.0199
213.398	0.0207
213.766	0.0064
214.133	0.0186
214.501	0.0139
214.869	0.0157
215.236	0.0172
215.604	0.0229
215.971	0.0495
216.338	0.0147
216.705	0.0159
217.072	0.0256
217.439	0.0386
217.806	0.0174
218.173	0.0487
218.54	0.0412
218.907	0.0693
219.273	0.0608
219.64	0.0843
220.006	0.0717
220.373	0.0892
220.739	0.1063
221.105	0.1189
221.471	0.138
221.837	0.1526
222.203	0.1537
222.569	0.1841
222.935	0.1944
223.3	0.2238
223.666	0.2405
224.031	0.2674
224.397	0.2797
224.762	0.3109
225.127	0.3149
225.493	0.3618
225.858	0.3791
226.223	0.3881
226.588	0.4268
226.952	0.4257
227.317	0.4696
227.682	0.4761
228.046	0.4813
228.411	0.5041
228.775	0.5163
229.14	0.5148
229.504	0.5253
229.868	0.5269
230.232	0.5569
230.596	0.5657
230.96	0.584
231.324	0.569
231.688	0.5941
232.052	0.5882
232.415	0.586
232.779	0.5944
233.142	0.594
233.505	0.6159
233.869	0.6008
234.232	0.603
234.595	0.5936
234.958	0.6094
235.321	0.6077
235.684	0.597
236.047	0.5898
236.409	0.5914
236.772	0.5979
237.134	0.5898
237.497	0.5789
237.859	0.5861
238.222	0.5827
238.584	0.5788
238.946	0.5745
239.308	0.5685
239.67	0.5656
240.032	0.5714
240.393	0.5585
240.755	0.5536
241.117	0.5539
241.478	0.5509
241.84	0.5437
242.201	0.5397
242.562	0.5371
242.924	0.5353
243.285	0.5272
243.646	0.5304
244.007	0.5207
244.368	0.5211
244.728	0.5195
245.089	0.5185
245.45	0.5107
245.81	0.5117
246.171	0.5088
246.531	0.5074
246.891	0.5072
247.252	0.5057
247.612	0.5088
247.972	0.5047
248.332	0.5011
248.692	0.4921
249.051	0.494
249.411	0.4959
249.771	0.4896
250.13	0.4868
250.49	0.4832
250.849	0.4871
251.208	0.4852
251.568	0.4852
251.927	0.4794
252.286	0.4834
252.645	0.4812
253.004	0.481
253.363	0.4753
253.721	0.4734
254.08	0.4771
254.439	0.4721
254.797	0.4741
255.155	0.4735
255.514	0.467
255.872	0.4703
256.23	0.4714
256.588	0.4683
256.946	0.4718
257.304	0.4643
257.662	0.4705
258.02	0.4704
258.377	0.4644
258.735	0.464
259.093	0.4653
259.45	0.4619
259.807	0.4641
260.165	0.4624
260.522	0.4639
260.879	0.4536
261.236	0.4594
261.593	0.4515
261.95	0.4528
262.306	0.4507
262.663	0.4494
263.02	0.4491
263.376	0.4452
263.733	0.4479
264.089	0.4431
264.445	0.4431
264.802	0.4395
265.158	0.4363
265.514	0.4388
265.87	0.4357
266.226	0.4343
266.581	0.4383
266.937	0.4361
267.293	0.4312
267.648	0.4298
268.004	0.4239
268.359	0.4255
268.714	0.4195
269.07	0.4214
269.425	0.4167
269.78	0.4145
270.135	0.4123
270.49	0.4081
270.844	0.4103
271.199	0.4066
271.554	0.4024
271.908	0.4043
272.263	0.4033
272.617	0.3979
272.972	0.3919
273.326	0.392
273.68	0.3863
274.034	0.3878
274.388	0.3886
274.742	0.384
275.096	0.3838
275.45	0.3796
275.803	0.3751
276.157	0.3743
276.51	0.3684
276.864	0.3683
277.217	0.3668
277.571	0.3638
277.924	0.3589
278.277	0.3552
278.63	0.3509
278.983	0.3482
279.336	0.3451
279.688	0.3431
280.041	0.34
280.394	0.334
280.746	0.3298
281.099	0.3291
281.451	0.3284
281.803	0.3233
282.156	0.3204
282.508	0.3149
282.86	0.3139
283.212	0.3097
283.564	0.3059
283.916	0.3034
284.267	0.3001
284.619	0.2988
284.971	0.2942
285.322	0.2929
285.673	0.289
286.025	0.2852
286.376	0.2821
286.727	0.2781
287.078	0.2742
287.429	0.2722
287.78	0.2686
288.131	0.2659
288.482	0.2641
288.833	0.2592
289.183	0.2562
289.534	0.2529
289.884	0.2517
290.235	0.2465
290.585	0.2436
290.935	0.24
291.285	0.24
291.635	0.2353
291.985	0.2319
292.335	0.2282
292.685	0.2254
293.035	0.2212
293.384	0.2201
293.734	0.2155
294.083	0.2138
294.433	0.2106
294.782	0.2092
295.131	0.2048
295.48	0.2014
295.829	0.1992
296.179	0.1966
296.527	0.1939
296.876	0.1906
297.225	0.1882
297.574	0.1852
297.922	0.1827
298.271	0.1789
298.619	0.1763
298.968	0.1751
299.316	0.1726
299.664	0.1697
300.012	0.1673
300.36	0.1643
300.708	0.1629
301.056	0.1605
301.404	0.157
301.752	0.1557
302.099	0.1528
302.447	0.1519
302.794	0.1498
303.142	0.1468
303.489	0.1451
303.836	0.1434
304.183	0.1413
304.531	0.1404
304.878	0.1389
305.224	0.1359
305.571	0.1354
305.918	0.1333
306.265	0.1312
306.611	0.1298
306.958	0.1293
307.304	0.1285
307.651	0.1269
307.997	0.1256
308.343	0.1238
308.689	0.1237
309.035	0.123
309.381	0.1217
309.727	0.1215
310.073	0.1199
310.419	0.1191
310.764	0.1185
311.11	0.1177
311.455	0.1176
311.801	0.1167
312.146	0.1156
312.491	0.116
312.837	0.1154
313.182	0.1147
313.527	0.1143
313.872	0.1139
314.216	0.1141
314.561	0.1139
314.906	0.1133
315.251	0.1135
315.595	0.114
315.94	0.1133
316.284	0.1136
316.628	0.1138
316.972	0.114
317.317	0.1142
317.661	0.1144
318.005	0.1139
318.348	0.115
318.692	0.1151
319.036	0.1153
319.38	0.1154
319.723	0.1151
320.067	0.1167
320.41	0.1169
320.754	0.1176
321.097	0.117
321.44	0.1182
321.783	0.1187
322.126	0.1198
322.469	0.1205
322.812	0.1209
323.155	0.1219
323.498	0.1215
323.84	0.1227
324.183	0.1234
324.525	0.1242
324.868	0.1259
325.21	0.1263
325.552	0.127
325.894	0.1286
326.236	0.1286
326.578	0.1297
326.92	0.1309
327.262	0.1304
327.604	0.1314
327.946	0.1332
328.287	0.1339
328.629	0.135
328.97	0.1356
329.312	0.1374
329.653	0.1384
329.994	0.1391
330.335	0.1395
330.676	0.1412
331.017	0.1415
331.358	0.143
331.699	0.1444
332.04	0.145
332.38	0.1459
332.721	0.1472
333.061	0.1478
333.402	0.1495
333.742	0.1502
334.083	0.1507
334.423	0.1518
334.763	0.1529
335.103	0.1535
335.443	0.1544
335.783	0.1552
336.123	0.1558
336.462	0.1571
336.802	0.1576
337.141	0.1585
337.481	0.1587
337.82	0.1603
338.16	0.1612
338.499	0.1625
338.838	0.1627
339.177	0.1638
339.516	0.1643
339.855	0.1648
340.194	0.1658
340.533	0.1653
340.872	0.1662
341.21	0.1677
341.549	0.1679
341.887	0.169
342.226	0.1687
342.564	0.1697
342.902	0.1694
343.24	0.1701
343.578	0.1714
343.916	0.171
344.254	0.1714
344.592	0.1717
344.93	0.1715
345.268	0.1717
345.605	0.172
345.943	0.172
346.28	0.1719
346.618	0.1724
346.955	0.1725
347.292	0.1736
347.629	0.1729
347.966	0.173
348.303	0.1731
348.64	0.1732
348.977	0.1733
349.314	0.1736
349.65	0.1725
349.987	0.174
350.324	0.1728
350.66	0.173
350.996	0.1727
351.333	0.1725
351.669	0.1719
352.005	0.1717
352.341	0.1708
352.677	0.1707
353.013	0.1699
353.349	0.169
353.685	0.1686
354.02	0.1678
354.356	0.1675
354.691	0.1663
355.027	0.1658
355.362	0.1653
355.697	0.1648
356.033	0.1645
356.368	0.1632
356.703	0.163
357.038	0.1625
357.373	0.1608
357.707	0.1611
358.042	0.1598
358.377	0.159
358.711	0.159
359.046	0.1578
359.38	0.1573
359.715	0.1575
360.049	0.1556
360.383	0.1545
360.717	0.1532
361.051	0.153
361.385	0.1521
361.719	0.1508
362.053	0.15
362.387	0.1484
362.72	0.1477
363.054	0.146
363.387	0.1454
363.721	0.1445
364.054	0.143
364.387	0.1412
364.721	0.1409
365.054	0.1395
365.387	0.1375
365.72	0.137
366.053	0.1362
366.385	0.1341
366.718	0.1338
367.051	0.1331
367.383	0.1317
367.716	0.1314
368.048	0.1299
368.381	0.1294
368.713	0.1277
369.045	0.1273
369.377	0.126
369.709	0.1254
370.041	0.1245
370.373	0.1238
370.705	0.122
371.037	0.1207
371.368	0.12
371.7	0.118
372.031	0.118
372.363	0.1164
372.694	0.1157
373.025	0.1131
373.356	0.1129
373.688	0.112
374.019	0.1102
374.35	0.1087
374.68	0.1079
375.011	0.1057
375.342	0.1047
375.673	0.1028
376.003	0.1016
376.334	0.1012
376.664	0.0998
376.995	0.0987
377.325	0.097
377.655	0.0962
377.985	0.0946
378.315	0.0937
378.645	0.093
378.975	0.0924
379.305	0.0905
379.635	0.0908
379.964	0.0899
380.294	0.0886
380.623	0.0879
380.953	0.0867
381.282	0.0861
381.611	0.0855
381.941	0.0844
382.27	0.0833
382.599	0.0824
382.928	0.081
383.257	0.08
383.585	0.0795
383.914	0.0782
384.243	0.0769
384.571	0.0758
384.9	0.0744
385.228	0.0736
385.557	0.073
385.885	0.0712
386.213	0.0711
386.541	0.0696
386.869	0.069
387.197	0.0669
387.525	0.0659
387.853	0.0656
388.181	0.0635
388.508	0.0627
388.836	0.0617
389.164	0.0613
389.491	0.0605
389.818	0.0595
390.146	0.0588
390.473	0.0579
390.8	0.0577
391.127	0.0564
391.454	0.0555
391.781	0.0554
392.108	0.0542
392.435	0.0531
392.761	0.0527
393.088	0.0523
393.415	0.0518
393.741	0.0522
394.067	0.0517
394.394	0.0508
394.72	0.0495
395.046	0.0488
395.372	0.0478
395.698	0.0477
396.024	0.0465
396.35	0.0465
396.676	0.0461
397.001	0.0447
397.327	0.0441
397.653	0.0432
397.978	0.0429
398.303	0.0419
398.629	0.0417
398.954	0.0412
399.279	0.0415
399.604	0.04
399.929	0.0409
400.254	0.0395
400.579	0.0391
400.904	0.0379
401.229	0.0382
401.553	0.0377
401.878	0.0379
402.202	0.0373
402.527	0.0364
402.851	0.0368
403.175	0.0358
403.5	0.0361
403.824	0.0351
404.148	0.0345
404.472	0.0348
404.796	0.0343
405.119	0.0343
405.443	0.0338
405.767	0.0336
406.09	0.0343
406.414	0.0334
406.737	0.0337
407.061	0.0337
407.384	0.0335
407.707	0.0333
408.03	0.0332
408.353	0.0324
408.676	0.0327
408.999	0.0322
409.322	0.032
409.645	0.0326
409.968	0.0322
410.29	0.0315
410.613	0.033
410.935	0.0313
411.258	0.0319
411.58	0.0313
411.902	0.0316
412.224	0.0315
412.546	0.0317
412.868	0.032
413.19	0.0312
413.512	0.0314
413.834	0.0317
414.156	0.0316
414.477	0.0306
414.799	0.0313
415.121	0.0304
415.442	0.0311
415.763	0.0308
416.085	0.0312
416.406	0.0309
416.727	0.0315
417.048	0.0312
417.369	0.0312
417.69	0.0304
418.011	0.0308
418.331	0.031
418.652	0.0311
418.973	0.031
419.293	0.0311
419.614	0.0307
419.934	0.0318
420.254	0.031
420.574	0.0301
420.895	0.0306
421.215	0.0309
421.535	0.0305
421.855	0.0296
422.174	0.0297
422.494	0.0303
422.814	0.0306
423.134	0.031
423.453	0.0309
423.773	0.0317
424.092	0.0311
424.411	0.0306
424.731	0.0309
425.05	0.0306
425.369	0.0309
425.688	0.0309
426.007	0.0315
426.326	0.0312
426.644	0.0304
426.963	0.0308
427.282	0.0306
427.6	0.0309
427.919	0.0307
428.237	0.0313
428.556	0.031
428.874	0.0312
429.192	0.0308
429.51	0.0306
429.828	0.0307
430.146	0.0306
430.464	0.0304
430.782	0.0306
431.1	0.0299
431.418	0.0303
431.735	0.03
432.053	0.0305
432.37	0.0306
432.688	0.03
433.005	0.03
433.322	0.0321
433.639	0.0307
433.957	0.0308
434.274	0.0309
434.591	0.031
434.907	0.0304
435.224	0.0309
435.541	0.0307
435.858	0.0315
436.174	0.0313
436.491	0.0304
436.807	0.0297
437.124	0.0303
437.44	0.0298
437.756	0.0307
438.072	0.03
438.388	0.03
438.704	0.0297
439.02	0.0297
439.336	0.0298
439.652	0.03
439.968	0.0298
440.283	0.0303
440.599	0.0305
440.914	0.03
441.23	0.0296
441.545	0.0302
441.86	0.0299
442.175	0.0299
442.491	0.0294
442.806	0.03
443.121	0.029
443.435	0.0287
443.75	0.0285
444.065	0.0294
444.38	0.0296
444.694	0.0282
445.009	0.0289
445.323	0.0293
445.638	0.0289
445.952	0.0285
446.266	0.0281
446.58	0.0275
446.894	0.0282
447.208	0.0281
447.522	0.0275
447.836	0.0284
448.15	0.0282
448.464	0.0272
448.777	0.0279
449.091	0.0278
449.404	0.0277
449.718	0.0274
450.031	0.0273
450.345	0.0278
450.658	0.027
450.971	0.0271
451.284	0.0275
451.597	0.0278
451.91	0.0274
452.223	0.0267
452.535	0.0272
452.848	0.0263
453.161	0.0267
453.473	0.0272
453.786	0.0264
454.098	0.0268
454.411	0.0264
454.723	0.0265
455.035	0.0262
455.347	0.0256
455.659	0.0263
455.971	0.0269
456.283	0.0264
456.595	0.0267
456.907	0.0261
457.218	0.0266
457.53	0.0255
457.841	0.0252
458.153	0.0253
458.464	0.0252
458.776	0.0246
459.087	0.0252
459.398	0.025
459.709	0.0242
460.02	0.0254
460.331	0.0249
460.642	0.0242
460.953	0.0241
461.263	0.025
461.574	0.0232
461.885	0.0247
462.195	0.0235
462.506	0.0241
462.816	0.0245
463.126	0.0235
463.437	0.0228
463.747	0.0227
464.057	0.0226
464.367	0.0214
464.677	0.0223
464.987	0.0223
465.296	0.0219
465.606	0.0222
465.916	0.0211
466.225	0.0217
466.535	0.0218
466.844	0.0221
467.154	0.0229
467.463	0.0214
467.772	0.0215
468.081	0.0219
468.39	0.0212
468.699	0.0215
469.008	0.0211
469.317	0.0212
469.626	0.0211
469.935	0.0206
470.243	0.0215
470.552	0.0204
470.86	0.0206
471.169	0.0205
471.477	0.0195
471.785	0.0197
472.093	0.0191
472.402	0.019
472.71	0.0196
473.018	0.0188
473.326	0.0191
473.633	0.0192
473.941	0.0187
474.249	0.0189
474.556	0.018
474.864	0.0183
475.171	0.0184
475.479	0.0184
475.786	0.0184
476.094	0.0173
476.401	0.0178
476.708	0.0174
477.015	0.0173
477.322	0.0166
477.629	0.0163
477.936	0.017
478.242	0.017
478.549	0.0167
478.856	0.017
479.162	0.0168
479.469	0.0165
479.775	0.0163
480.081	0.0153
480.388	0.0157
480.694	0.0162
481	0.0157
481.306	0.0155
481.612	0.0164
481.918	0.016
482.224	0.0156
482.53	0.0152
482.835	0.0157
483.141	0.0156
483.446	0.015
483.752	0.0139
484.057	0.0143
484.363	0.0145
484.668	0.0143
484.973	0.0135
485.278	0.0134
485.583	0.0126
485.888	0.0128
486.193	0.0119
486.498	0.013
486.803	0.0127
487.107	0.012
487.412	0.0102
487.717	0.0121
488.021	0.0131
488.325	0.0117
488.63	0.0114
488.934	0.0122
489.238	0.0119
489.542	0.0113
489.846	0.0109
490.15	0.0116
490.454	0.0123
490.758	0.011
491.062	0.0111
491.366	0.011
491.669	0.0112
491.973	0.0113
492.276	0.011
492.58	0.0102
492.883	0.0109
493.186	0.0102
493.489	0.0107
493.792	0.0083
494.096	0.009
494.399	0.0095
494.701	0.0095
495.004	0.0087
495.307	0.0097
495.61	0.0094
495.912	0.0096
496.215	0.0091
496.517	0.0094
496.82	0.0081
497.122	0.009
497.424	0.0088
497.727	0.0092
498.029	0.0081
498.331	0.0088
498.633	0.0079
498.935	0.0078
499.237	0.009
499.538	0.0074
499.84	0.0082
500.142	0.0079
500.443	0.0078
500.745	0.008
501.046	0.0077
501.348	0.0073
501.649	0.0075
501.95	0.0074
502.251	0.0078
502.552	0.0068
502.853	0.0074
503.154	0.0072
503.455	0.0069
503.756	0.0069
504.057	0.0067
504.357	0.0066
504.658	0.006
504.958	0.0055
505.259	0.0072
505.559	0.0058
505.859	0.0059
506.16	0.0049
506.46	0.0062
506.76	0.0065
507.06	0.0047
507.36	0.0057
507.66	0.0068
507.96	0.0074
508.259	0.0051
508.559	0.0059
508.859	0.0058
509.158	0.0053
509.457	0.0046
509.757	0.0049
510.056	0.005
510.355	0.0051
510.655	0.004
510.954	0.0052
511.253	0.0045
511.552	0.0045
511.851	0.0052
512.149	0.0043
512.448	0.0043
512.747	0.004
513.045	0.005
513.344	0.005
513.642	0.0047
513.941	0.005
514.239	0.0048
514.537	0.0041
514.836	0.0046
515.134	0.0053
515.432	0.0046
515.73	0.0041
516.028	0.004
516.326	0.0032
516.623	0.0025
516.921	0.0035
517.219	0.0045
517.516	0.0028
517.814	0.0038
518.111	0.0042
518.409	0.0037
518.706	0.0044
519.003	0.0036
519.3	0.0034
519.597	0.0037
519.894	0.0034
520.191	0.0049
520.488	0.0041
520.785	0.004
521.082	0.005
521.378	0.0045
521.675	0.0027
521.971	0.0036
522.268	0.0043
522.564	0.0041
522.861	0.0045
523.157	0.0038
523.453	0.0043
523.749	0.0033
524.045	0.0037
524.341	0.0038
524.637	0.003
524.933	0.0041
525.229	0.003
525.524	0.0036
525.82	0.0034
526.115	0.0042
526.411	0.003
526.706	0.0028
527.002	0.0036
527.297	0.0025
527.592	0.0028
527.887	0.0025
528.182	0.0032
528.477	0.0041
528.772	0.0031
529.067	0.0031
529.362	0.0038
529.657	0.0034
529.951	0.0029
530.246	0.0028
530.54	0.0035
530.835	0.0035
531.129	0.0053
531.423	0.0031
531.718	0.0029
532.012	0.0028
532.306	0.0033
532.6	0.0034
532.894	0.0036
533.188	0.0031
533.482	0.0035
533.775	0.0032
534.069	0.0033
534.363	0.0029
534.656	0.0028
534.95	0.0022
535.243	0.0026
535.536	0.0016
535.83	0.0021
536.123	0.0025
536.416	0.0028
536.709	0.0025
537.002	0.0032
537.295	0.0034
537.588	0.0026
537.881	0.0027
538.173	0.0027
538.466	0.0026
538.759	0.003
539.051	0.0029
539.344	0.0035
539.636	0.003
539.928	0.004
540.22	0.0027
540.513	0.0033
540.805	0.0041
541.097	0.0031
541.389	0.0034
541.681	0.0038
541.972	0.0027
542.264	0.0039
542.556	0.0037
542.847	0.0037
543.139	0.0042
543.431	0.0029
543.722	0.0031
544.013	0.0032
544.305	0.0031
544.596	0.0031
544.887	0.0035
545.178	0.0043
545.469	0.004
545.76	0.0038
546.051	0.0042
546.342	0.0037
546.632	0.0035
546.923	0.0036
547.214	0.0018
547.504	0.0033
547.795	0.0025
548.085	0.0032
548.375	0.0039
548.666	0.0043
548.956	0.0042
549.246	0.0049
549.536	0.0043
549.826	0.0047
550.116	0.004
550.406	0.0035
550.695	0.0045
550.985	0.0039
551.275	0.0045
551.564	0.006
551.854	0.0048
552.143	0.0045
552.433	0.0035
552.722	0.004
553.011	0.0044
553.3	0.0036
553.589	0.0046
553.879	0.0043
554.167	0.0039
554.456	0.0031
554.745	0.0035
555.034	0.0049
555.323	0.0027
555.611	0.0037
555.9	0.0033
556.188	0.0024
556.477	0.0019
556.765	0.0047
557.053	0.0042
557.342	0.0029
557.63	0.0036
557.918	0.0037
558.206	0.0043
558.494	0.0053
558.782	0.0034
559.069	0.0039
559.357	0.0034
559.645	0.0041
559.932	0.0033
560.22	0.0031
560.507	0.0014
560.795	0.0023
561.082	0.0017
561.37	0.0024
561.657	0.0024
561.944	0.0026
562.231	0.0027
562.518	0.0037
562.805	0.0038
563.092	0.0032
563.379	0.0022
563.665	0.0031
563.952	0.0038
564.239	0.0047
564.525	0.0029
564.811	0.0032
565.098	0.0033
565.384	0.003
565.67	0.0042
565.957	0.0035
566.243	0.0044
566.529	0.0032
566.815	0.0039
567.101	0.0039
567.387	0.0033
567.672	0.0031
567.958	0.0025
568.244	0.0024
568.529	0.0026
568.815	0.0026
569.1	0.0025
569.386	0.0027
569.671	0.0026
569.956	0.0023
570.242	0.0032
570.527	0.002
570.812	0.0019
571.097	0.0011
571.382	0.001
571.666	0.0013
571.951	0.0025
572.236	0.0014
572.521	0.0028
572.805	0.0028
573.09	0.0022
573.374	0.0013
573.659	0.0015
573.943	0.0023
574.227	0.0028
574.511	0.0022
574.795	0.0023
575.079	0.0026
575.363	0.002
575.647	0.0028
575.931	0.0031
576.215	0.0028
576.499	0.0014
576.782	0.0015
577.066	0.0019
577.349	0.0033
577.633	0.0032
577.916	0.0018
578.2	0.0026
578.483	0.0036
578.766	0.0035
579.049	0.0028
579.332	0.0037
579.615	0.0019
579.898	0.0019
580.181	0.0027
580.464	0.0029
580.746	0.0026
581.029	0.0026
581.312	0.0007
581.594	0.0005
581.877	0.0021
582.159	0.0035
582.441	0.0016
582.724	0.0033
583.006	0.0038
583.288	0.0032
583.57	0.0037
583.852	0.0041
584.134	0.004
584.416	0.0026
584.697	0.0027
584.979	0.0018
585.261	0.0023
585.542	0.0025
585.824	0.0034
586.105	0.0026
586.387	0.0036
586.668	0.003
586.949	0.0043
587.231	0.0038
587.512	0.0033
587.793	0.003
588.074	0.0035
588.355	0.004
588.636	0.0028
588.916	0.0033
589.197	0.0031
589.478	0.0036
589.758	0.0018
590.039	0.0021
590.319	0.0019
590.6	0.0022
590.88	0.0025
591.16	0.0027
591.441	0.0032
591.721	0.0025
592.001	0.0019
592.281	0.0025
592.561	0.0027
592.841	0.0015
593.12	0.0013
593.4	0.003
593.68	0.003
593.959	0.003
594.239	0.0039
594.518	0.0045
594.798	0.0035
595.077	0.0017
595.356	0.0027
595.636	0.0032
595.915	0.0031
596.194	0.0035
596.473	0.0034
596.752	0.0026
597.031	0.0034
597.31	0.0017
597.588	0.0024
597.867	0.002
598.146	0.0014
598.424	0.0017
598.703	0.0017
598.981	0.0005
599.259	0.001
599.538	0.0033
599.816	0.0027
600.094	0.0016
600.372	0.0025
600.65	0.0033
600.928	0.0021
601.206	0.0019
601.484	0.0025
601.762	0.0034
602.04	0.0034
602.317	0.0036
602.595	0.0041
602.872	0.0037
603.15	0.0035
603.427	0.0008
603.704	0.0013
603.982	0.0018
604.259	0.0016
604.536	0.002
604.813	0.0027
605.09	0.002
605.367	0.0009
605.644	0.0012
605.921	0.0017
606.197	0.0002
606.474	0.0026
606.751	0.0017
607.027	0.0022
607.304	0.002
607.58	0.0022
607.856	0.0026
608.133	0.0036
608.409	0.004
608.685	0.0034
608.961	0.0037
609.237	0.0039
609.513	0.0051
609.789	0.0029
610.065	0.0023
610.341	0.0024
610.616	0.0038
610.892	0.0036
611.167	0.003
611.443	0.0039
611.718	0.0042
611.994	0.0039
612.269	0.0033
612.544	0.0028
612.819	0.0024
613.095	0.0028
613.37	0.0016
613.645	0.0018
613.919	0.0028
614.194	0.0029
614.469	0.0027
614.744	0.0013
615.019	0.0017
615.293	0.002
615.568	0.0023
615.842	0.0015
616.116	0.0016
616.391	0.0015
616.665	0.0014
616.939	0.0006
617.213	0.0022
617.488	0.0021
617.762	0.0029
618.035	0.0026
618.309	0.0022
618.583	0.0028
618.857	0.0038
619.131	0.0028
619.404	0.0034
619.678	0.004
619.951	0.0024
620.225	0.0016
620.498	0.0026
620.771	0.0026
621.045	0.003
621.318	0.0039
621.591	0.0024
621.864	0.0005
622.137	0.0014
622.41	0.0019
622.683	0.0027
622.956	0.0025
623.228	0.0027
623.501	0.0033
623.774	0.0037
624.046	0.0033
624.319	0.0027
624.591	0.0022
624.863	0.0027
625.136	0.0044
625.408	0.0044
625.68	0.0033
625.952	0.0038
626.224	0.0045
626.496	0.0035
626.768	0.0036
627.04	0.0036
627.311	0.0037
627.583	0.0052
627.855	0.005
628.126	0.0041
628.398	0.0034
628.669	0.0038
628.941	0.0023
629.212	0.0014
629.483	0.0024
629.755	0.0025
630.026	0.0028
630.297	0.0027
630.568	0.0036
630.839	0.0048
631.11	0.0037
631.38	0.0047
631.651	0.0032
631.922	0.0039
632.192	0.0034
632.463	0.0037
632.733	0.0025
633.004	0.003
633.274	0.0033
633.545	0.0029
633.815	0.005
634.085	0.0043
634.355	0.0042
634.625	0.0043
634.895	0.0049
635.165	0.0044
635.435	0.0047
635.705	0.0039
635.974	0.0032
636.244	0.0036
636.514	0.003
636.783	0.0029
637.053	0.0037
637.322	0.0037
637.591	0.0031
637.861	0.0018
638.13	0.0027
638.399	0.005
638.668	0.0039
638.937	0.0045
639.206	0.0054
639.475	0.0054
639.744	0.0045
640.013	0.0048
640.281	0.0046
640.55	0.0045
640.819	0.004
641.087	0.0042
641.356	0.0042
641.624	0.0046
641.892	0.0041
642.161	0.0046
642.429	0.0042
642.697	0.0049
642.965	0.0035
643.233	0.0028
643.501	0.0029
643.769	0.0034
644.037	0.0035
644.305	0.003
644.572	0.0031
644.84	0.0031
645.108	0.0046
645.375	0.0041
645.643	0.0046
645.91	0.0041
646.177	0.0039
646.445	0.0021
646.712	0.0039
646.979	0.0039
647.246	0.0045
647.513	0.0041
647.78	0.0041
648.047	0.0017
648.314	0.0018
648.58	0.001
648.847	-0.0003
649.114	-0.0001
649.38	0.0002
649.647	0.0008
649.913	0.0005
650.18	0.0018
650.446	0.0031
650.712	0.004
650.978	0.0051
651.245	0.0054
651.511	0.0047
651.777	0.0049
652.043	0.0036
652.309	0.0048
652.574	0.0042
652.84	0.0046
653.106	0.0049
653.371	0.0059
653.637	0.0061
653.903	0.0058
654.168	0.0055
654.433	0.0054
654.699	0.0054
654.964	0.0035
655.229	0.0032
655.494	0.0022
655.759	-0.0031
656.024	0.0003
656.289	-0
656.554	0.0038
656.819	0.006
657.084	0.0058
657.349	0.0068
657.613	0.0051
657.878	0.0039
658.142	0.0033
658.407	0.0042
658.671	0.0032
658.936	0.0032
659.2	0.0047
659.464	0.0039
659.728	0.0037
659.992	0.0029
660.256	0.0014
660.52	0.0009
660.784	0.0031
661.048	0.0028
661.312	0.0039
661.575	0.0033
661.839	0.0052
662.103	0.0034
662.366	0.0035
662.63	0.0037
662.893	0.0032
663.156	0.0032
663.42	0.0043
663.683	0.0043
663.946	0.0051
664.209	0.0049
664.472	0.0044
664.735	0.0043
664.998	0.0053
665.261	0.0061
665.524	0.0059
665.786	0.006
666.049	0.0048
666.312	0.0045
666.574	0.0042
666.837	0.0051
667.099	0.0053
667.361	0.0047
667.624	0.0049
667.886	0.0045
668.148	0.0044
668.41	0.0045
668.672	0.0045
668.934	0.0051
669.196	0.0036
669.458	0.0038
669.72	0.0023
669.982	0.003
670.243	0.002
670.505	0.0028
670.766	0.0026
671.028	0.0033
671.289	0.0038
671.551	0.0031
671.812	0.0013
672.073	0.003
672.334	0.0033
672.596	0.0024
672.857	0.0034
673.118	0.0051
673.379	0.0054
673.639	0.0053
673.9	0.0052
674.161	0.0053
674.422	0.0063
674.682	0.0055
674.943	0.0048
675.203	0.0057
675.464	0.0044
675.724	0.0038
675.985	0.0038
676.245	0.0036
676.505	0.0023
676.765	0.0024
677.025	0.0032
677.285	0.0021
677.545	0.0019
677.805	0.0013
678.065	0.0021
678.325	0.0044
678.585	0.0047
678.844	0.0042
679.104	0.0062
679.363	0.0059
679.623	0.0065
679.882	0.0062
680.142	0.0068
680.401	0.0063
680.66	0.0073
680.919	0.0044
681.178	0.0067
681.437	0.0047
681.696	0.0033
681.955	0.0067
682.214	0.0061
682.473	0.0068
682.732	0.0047
682.99	0.006
683.249	0.006
683.508	0.0054
683.766	0.0052
684.024	0.0056
684.283	0.0042
684.541	0.0025
684.799	0.0026
685.058	0.001
685.316	0.0003
685.574	-0
685.832	0.0013
686.09	0.0026
686.348	0.001
686.606	0.0016
686.863	0.0019
687.121	0.0033
687.379	0.0021
687.636	0.0013
687.894	0.0032
688.151	0.0022
688.409	0.0026
688.666	0.0025
688.923	0.0026
689.181	0.0034
689.438	0.0019
689.695	0.0016
689.952	0.002
690.209	0.0018
690.466	0.0015
690.723	0.0013
690.979	0.0013
691.236	0.0008
691.493	-0.0001
691.75	0.0006
692.006	0.0006
692.263	-0.0003
692.519	-0.0002
692.775	-0.0014
693.032	-0.001
693.288	-0.0022
693.544	-0.0006
693.8	0.001
694.056	0.0005
694.313	0.0009
694.568	0.0022
694.824	0.0017
695.08	0.0014
695.336	0.0018
695.592	0.0004
695.847	0.0029
696.103	0.004
696.359	0.005
696.614	0.0031
696.869	0.0027
697.125	-0.0002
697.38	0.0007
697.635	0.0026
697.891	0.0032
698.146	0.0027
698.401	0.0022
698.656	0.0013
698.911	0.0028
699.166	0.0024
699.42	0.0034
699.675	0.004
699.93	0.0044
700.185	0.0049
700.439	0.0041
700.694	0.0028
700.948	0.0023
701.203	0.0029
701.457	0.0024
701.711	0.003
701.965	0.0014
702.22	0.001
702.474	0.0008
702.728	0.0006
702.982	0.0014
703.236	0.0022
703.49	0.0025
703.743	0.0019
703.997	0.0019
704.251	0.0019
704.504	0.0018
704.758	0.0012
705.012	0.002
705.265	0.0023
705.518	0.0025
705.772	0.0026
706.025	0.0031
706.278	0.0032
706.531	0.0021
706.785	0.0006
707.038	0.0004
707.291	0.0012
707.543	0.0002
707.796	0.001
708.049	0.0006
708.302	0.0002
708.555	0.001
708.807	0.0016
709.06	0.0019
709.312	0.0039
709.565	0.0039
709.817	0.0057
710.069	0.0045
710.322	0.0042
710.574	0.0031
710.826	0.0024
711.078	0.0022
711.33	0.002
711.582	0.0017
711.834	0.0006
712.086	0.0015
712.338	0.001
712.59	0.0001
712.841	-0.0018
713.093	-0.0008
713.344	0.0006
713.596	-0.0001
713.847	0
714.099	0.0006
714.35	0.0015
714.601	0.0007
714.853	0.0004
715.104	0.0004
715.355	-0.0006
715.606	0.0018
715.857	0.0017
716.108	0.0021
716.359	0.0031
716.609	0.0019
716.86	0.0036
717.111	0.0024
717.361	0.0023
717.612	0.0026
717.863	0.0027
718.113	0.0031
718.363	0.0018
718.614	0.0028
718.864	0.0024
719.114	0.0024
719.364	0.0008
719.614	0.001
719.865	0.0009
720.114	0.0023
720.364	0.002
720.614	0.0013
720.864	0.0013
721.114	0.0006
721.364	0.0004
721.613	0.001
721.863	0.001
722.112	0.0013
722.362	0.0014
722.611	0.0032
722.86	0.0031
723.11	0.0041
723.359	0.0038
723.608	0.0034
723.857	0.0047
724.106	0.0035
724.355	0.0043
724.604	0.0035
724.853	0.0018
725.102	0.0009
725.351	-0.0005
725.599	-0.002
725.848	-0.0006
726.097	0.0004
726.345	0.0002
726.594	0.0003
726.842	0.0014
727.09	-0.0003
727.339	0.0006
727.587	0
727.835	0.0007
728.083	0.0003
728.331	0.0004
728.579	0.0019
728.827	0.0005
729.075	-0.0008
729.323	-0.0015
729.571	-0.0016
729.818	-0.0019
730.066	-0.0008
730.314	-0.0002
730.561	-0.0002
730.809	-0.0022
731.056	-0.002
731.303	-0.0012
731.551	-0.0006
731.798	-0.0005
732.045	0.0004
732.292	0.0003
732.539	-0.0001
732.786	-0.0006
733.033	-0.0012
733.28	-0.0008
733.527	-0.0007
733.774	-0.0018
734.021	-0.0013
734.267	-0.0004
734.514	-0.0015
734.76	-0.0007
735.007	-0.0005
735.253	-0.0001
735.5	0.0006
735.746	0.0021
735.992	0.0016
736.238	0.0021
736.485	0.002
736.731	0.003
736.977	0.0009
737.223	0.0009
737.469	0.0013
737.715	0.0019
737.96	0.003
738.206	0.0027
738.452	0.0035
738.697	0.0029
738.943	0.0015
739.189	0.0012
739.434	0.0004
739.679	0.0027
739.925	0.0042
740.17	0.0046
740.415	0.0039
740.66	0.0034
740.906	0.0028
741.151	0.0025
741.396	0.0017
741.641	0.0016
741.886	0.0015
742.13	0.0006
742.375	0.0015
742.62	-0.0005
742.865	0
743.109	0.0006
743.354	-0.0011
743.598	-0.0013
743.843	-0.0023
744.087	-0.0026
744.331	-0.0021
744.576	-0.0014
744.82	0.0006
745.064	0.0007
745.308	0.0022
745.552	0.0017
745.796	-0.0002
746.04	0.0003
746.284	0.0001
746.528	0.0016
746.771	0.0014
747.015	0.0015
747.259	-0.0007
747.502	0.0002
747.746	0.0018
747.989	0.0023
748.233	0.0036
748.476	0.0037
748.719	0.0022
748.963	0.0021
749.206	0.0014
749.449	0.0003
749.692	0.001
749.935	0.0013
750.178	0.0013
750.421	0.0008
750.664	0.0019
750.906	0.0026
751.149	0.0026
751.392	0.0021
751.635	0.0031
751.877	0.0024
752.12	0.0027
752.362	0.0033
752.604	0.0034
752.847	0.0024
753.089	0.0022
753.331	0.0021
753.573	0.0022
753.816	0.0024
754.058	0.0026
754.3	0.0035
754.542	0.0043
754.783	0.0033
755.025	0.0038
755.267	0.0031
755.509	0.0024
755.75	0.0011
755.992	0.0012
756.234	0.0021
756.475	0.0025
756.716	0.0011
756.958	0.0003
757.199	0.0014
757.44	0.0022
757.682	0.0009
757.923	0.0028
758.164	0.0039
758.405	0.0038
758.646	0.0043
758.887	0.0038
759.128	0.0036
759.369	0.0015
759.609	0.0024
759.85	0.0024
760.091	0.002
760.331	0.0025
760.572	0.0019
760.812	0.0011
761.053	0.0022
761.293	0.004
761.533	0.0038
761.774	0.0044
762.014	0.0051
762.254	0.0041
762.494	0.0029
762.734	0.003
762.974	0.0027
763.214	0.0026
763.454	0.0029
763.694	0.0025
763.933	0.004
764.173	0.0051
764.413	0.0047
764.652	0.002
764.892	0.0024
765.131	0.0019
765.371	0.002
765.61	0.0011
765.849	-0.0002
766.089	0.0003
766.328	0.0005
766.567	-0.001
766.806	-0
767.045	-0.0012
767.284	0.0006
767.523	0.0001
767.762	-0.0006
768.001	0.0002
768.239	0.0001
768.478	-0.0006
768.717	0.0003
768.955	0.0002
769.194	0.0007
769.432	0.0017
769.671	0.0021
769.909	0.0019
770.148	0.0017
770.386	0.0014
770.624	0.0008
770.862	0
771.1	-0
771.338	-0.0015
771.576	-0
771.814	0.001
772.052	0.0007
772.29	0.0022
772.528	0.0014
772.765	0.0005
773.003	0.0015
773.24	0.002
773.478	0.0015
773.716	0.0032
773.953	0.0024
774.19	0.0026
774.428	0.0033
774.665	0.0032
774.902	0.0041
775.139	0.0037
775.376	0.0034
775.613	0.0036
775.85	0.005
776.087	0.0059
776.324	0.005
776.561	0.0041
776.798	0.0038
777.034	0.0034
777.271	0.0026
777.508	0.0023
777.744	0.004
777.981	0.0035
778.217	0.0029
778.454	0.0027
778.69	0.003
778.926	0.0027
779.162	0.002
779.399	0.0028
779.635	0.0027
779.871	0.0029
780.107	0.003
780.343	0.0021
780.579	0.0033
780.814	0.0037
781.05	0.0033
781.286	0.0018
781.522	0.0017
781.757	0.001
781.993	0.0017
782.228	0.001
782.464	0.0019
782.699	0.0022
782.934	0.0012
783.17	0.002
783.405	0.0023
783.64	0.002
783.875	0.0016
784.11	0.0017
784.345	0.0025
784.58	0.003
784.815	0.0023
785.05	0.0022
785.285	0.0013
785.52	0.0017
785.754	0.0019
785.989	0.0024
786.223	0.0041
786.458	0.0038
786.692	0.0042
786.927	0.0059
787.161	0.0058
787.396	0.0059
787.63	0.0042
787.864	0.004
788.098	0.0027
788.332	0.0021
788.566	0.0013
788.8	0.0017
789.034	0.0021
789.268	0.0013
789.502	0.0024
789.736	0.0032
789.969	0.0032
790.203	0.0036
790.437	0.0033
790.67	0.0045
790.904	0.0057
791.137	0.0068
791.37	0.0068
791.604	0.0068
791.837	0.0068
792.07	0.0072
792.303	0.0074
792.537	0.0081
792.77	0.0075
793.003	0.0065
793.236	0.0048
793.469	0.0038
793.701	0.0033
793.934	0.0019
794.167	0.0013
794.4	0.001
794.632	0.0007
794.865	0.0008
795.097	0.0005
795.33	0.0006
795.562	0.0006
795.795	0.0017
796.027	0.0009
796.259	0.0025
796.491	0.0016
796.724	0.0018
796.956	0.0022
797.188	0.0019
797.42	0.002
797.652	0.0019
797.883	0.0024
798.115	0.0031
798.347	0.0029
798.579	0.0028
798.81	0.0028
799.042	0.0028
799.274	0.004
799.505	0.0029
799.737	0.0032
799.968	0.0017
800.199	0.0019
800.431	0.002
800.662	0.0008
800.893	0.0021
801.124	0.0016
801.355	0.0035
801.586	0.0042
801.817	0.0058
802.048	0.0053
802.279	0.0061
802.51	0.0066
802.741	0.007
802.971	0.0069
803.202	0.0052
803.433	0.0048
803.663	0.0046
803.894	0.0038
804.124	0.0037
804.354	0.0046
804.585	0.0055
804.815	0.0055
805.045	0.006
805.275	0.0052
805.506	0.0314
805.736	-0.1253
805.966	-0.1811
806.196	-0.1599
