Data from 03 0.4 mM K2Cr2O7 0.25 M BQDS 1 M H2SO4 5 min_Absorbance_0239.txt Node
Date: Wed Dec 15 13:25:13 EST 2021
User: kwabilab-user
Spectrometer: HDX00518
Trigger mode: 0
Integration Time (sec): 5.000000E-2
Scans to average: 50
Nonlinearity correction enabled: false
Boxcar width: 0
Storing dark spectrum: false
XAxis mode: Wavelengths
Number of Pixels in Spectrum: 2068
>>>>>Begin Spectral Data<<<<<
195.27	-0.299
195.642	0.0348
196.014	-0.2409
196.386	-0.2264
196.758	-0.1289
197.129	-0.017
197.501	-0.0369
197.872	-0.0061
198.244	-0.0047
198.615	0.0108
198.986	0.004
199.357	-0.0036
199.728	0.0135
200.099	0.004
200.47	0.0108
200.841	-0.0069
201.212	-0.007
201.582	0.0128
201.953	0.0035
202.323	-0.0054
202.694	0.0028
203.064	-0.007
203.434	-0.0128
203.804	-0.0193
204.174	-0.0034
204.544	0.0041
204.914	-0.0276
205.284	-0.0162
205.653	-0.0289
206.023	-0.0217
206.393	0.0178
206.762	-0.0079
207.131	0.0015
207.501	0.0043
207.87	-0.0127
208.239	-0.0086
208.608	-0.0122
208.977	-0.0186
209.346	0.0051
209.715	0.0019
210.083	-0.009
210.452	-0.0113
210.82	0.0021
211.189	-0.0059
211.557	0.0028
211.925	-0.0097
212.294	-0.0138
212.662	0.0148
213.03	-0.0005
213.398	-0.001
213.766	-0.0172
214.133	-0.0132
214.501	-0.0057
214.869	-0.015
215.236	-0.0069
215.604	0.0208
215.971	0.0315
216.338	0.0203
216.705	0.0114
217.072	-0.0025
217.439	0.0112
217.806	0.0113
218.173	0.0291
218.54	0.0254
218.907	0.0366
219.273	0.034
219.64	0.0502
220.006	0.0519
220.373	0.0572
220.739	0.0651
221.105	0.1016
221.471	0.1056
221.837	0.1361
222.203	0.1388
222.569	0.1493
222.935	0.165
223.3	0.2016
223.666	0.2129
224.031	0.2393
224.397	0.248
224.762	0.2828
225.127	0.3085
225.493	0.3298
225.858	0.3616
226.223	0.3818
226.588	0.4012
226.952	0.3986
227.317	0.4334
227.682	0.4501
228.046	0.4485
228.411	0.4964
228.775	0.4991
229.14	0.5022
229.504	0.5035
229.868	0.5237
230.232	0.5295
230.596	0.5437
230.96	0.5599
231.324	0.5425
231.688	0.5696
232.052	0.5764
232.415	0.5772
232.779	0.5861
233.142	0.568
233.505	0.5957
233.869	0.5946
234.232	0.5976
234.595	0.5869
234.958	0.5893
235.321	0.5968
235.684	0.5823
236.047	0.5774
236.409	0.5691
236.772	0.5762
237.134	0.5707
237.497	0.568
237.859	0.5788
238.222	0.5708
238.584	0.5629
238.946	0.5572
239.308	0.557
239.67	0.5544
240.032	0.5567
240.393	0.5502
240.755	0.5486
241.117	0.5417
241.478	0.5455
241.84	0.5419
242.201	0.5388
242.562	0.53
242.924	0.5232
243.285	0.5219
243.646	0.5189
244.007	0.5148
244.368	0.5155
244.728	0.5108
245.089	0.5112
245.45	0.5068
245.81	0.5074
246.171	0.4976
246.531	0.5003
246.891	0.494
247.252	0.4948
247.612	0.498
247.972	0.4916
248.332	0.4888
248.692	0.4834
249.051	0.4852
249.411	0.4814
249.771	0.4805
250.13	0.4789
250.49	0.4752
250.849	0.4768
251.208	0.4765
251.568	0.474
251.927	0.4755
252.286	0.4753
252.645	0.4688
253.004	0.4738
253.363	0.472
253.721	0.4735
254.08	0.4684
254.439	0.464
254.797	0.4666
255.155	0.4661
255.514	0.4605
255.872	0.4628
256.23	0.4564
256.588	0.4638
256.946	0.4634
257.304	0.4602
257.662	0.4607
258.02	0.4614
258.377	0.4536
258.735	0.4523
259.093	0.4538
259.45	0.4551
259.807	0.4546
260.165	0.4515
260.522	0.4521
260.879	0.4476
261.236	0.4449
261.593	0.4475
261.95	0.4458
262.306	0.4458
262.663	0.4396
263.02	0.4416
263.376	0.4376
263.733	0.4366
264.089	0.4336
264.445	0.4369
264.802	0.4341
265.158	0.4306
265.514	0.4323
265.87	0.4267
266.226	0.4272
266.581	0.4256
266.937	0.4272
267.293	0.4203
267.648	0.4199
268.004	0.4209
268.359	0.4182
268.714	0.4103
269.07	0.4142
269.425	0.4128
269.78	0.4071
270.135	0.4045
270.49	0.405
270.844	0.4049
271.199	0.4007
271.554	0.398
271.908	0.3967
272.263	0.3948
272.617	0.3936
272.972	0.389
273.326	0.3883
273.68	0.3816
274.034	0.3825
274.388	0.3801
274.742	0.3805
275.096	0.3734
275.45	0.371
275.803	0.3709
276.157	0.3681
276.51	0.3649
276.864	0.3624
277.217	0.3609
277.571	0.3592
277.924	0.3511
278.277	0.3505
278.63	0.346
278.983	0.3447
279.336	0.3427
279.688	0.338
280.041	0.3358
280.394	0.3304
280.746	0.3289
281.099	0.3232
281.451	0.3218
281.803	0.3194
282.156	0.3156
282.508	0.3109
282.86	0.3113
283.212	0.3066
283.564	0.2995
283.916	0.2989
284.267	0.2953
284.619	0.294
284.971	0.289
285.322	0.2898
285.673	0.284
286.025	0.2807
286.376	0.2783
286.727	0.2738
287.078	0.2724
287.429	0.2694
287.78	0.2675
288.131	0.2649
288.482	0.26
288.833	0.257
289.183	0.2527
289.534	0.2497
289.884	0.2486
290.235	0.2445
290.585	0.2413
290.935	0.2383
291.285	0.2353
291.635	0.233
291.985	0.2306
292.335	0.2273
292.685	0.2239
293.035	0.2197
293.384	0.2167
293.734	0.2142
294.083	0.2118
294.433	0.2091
294.782	0.2062
295.131	0.203
295.48	0.1998
295.829	0.1966
296.179	0.1963
296.527	0.1915
296.876	0.1883
297.225	0.1845
297.574	0.1837
297.922	0.1796
298.271	0.1769
298.619	0.1749
298.968	0.1732
299.316	0.1712
299.664	0.1684
300.012	0.1648
300.36	0.1633
300.708	0.16
301.056	0.1588
301.404	0.1569
301.752	0.1545
302.099	0.1527
302.447	0.1497
302.794	0.1487
303.142	0.1458
303.489	0.1437
303.836	0.1411
304.183	0.1409
304.531	0.1386
304.878	0.1374
305.224	0.1348
305.571	0.1339
305.918	0.1315
306.265	0.1293
306.611	0.129
306.958	0.1284
307.304	0.1277
307.651	0.1248
307.997	0.1238
308.343	0.1228
308.689	0.1232
309.035	0.1221
309.381	0.1204
309.727	0.1192
310.073	0.1177
310.419	0.1173
310.764	0.1179
311.11	0.116
311.455	0.1153
311.801	0.1156
312.146	0.1152
312.491	0.1146
312.837	0.1141
313.182	0.1133
313.527	0.1126
313.872	0.1127
314.216	0.1122
314.561	0.1126
314.906	0.1123
315.251	0.1127
315.595	0.1127
315.94	0.1123
316.284	0.1122
316.628	0.1123
316.972	0.1127
317.317	0.1127
317.661	0.1131
318.005	0.1129
318.348	0.1129
318.692	0.1132
319.036	0.1133
319.38	0.1144
319.723	0.1142
320.067	0.1155
320.41	0.1152
320.754	0.1157
321.097	0.1155
321.44	0.1172
321.783	0.1176
322.126	0.1188
322.469	0.1186
322.812	0.1192
323.155	0.1201
323.498	0.1212
323.84	0.1212
324.183	0.122
324.525	0.1227
324.868	0.1251
325.21	0.1247
325.552	0.1259
325.894	0.1271
326.236	0.1273
326.578	0.1282
326.92	0.1291
327.262	0.1298
327.604	0.1303
327.946	0.1313
328.287	0.1317
328.629	0.1332
328.97	0.1345
329.312	0.1352
329.653	0.1363
329.994	0.1371
330.335	0.1381
330.676	0.1397
331.017	0.1401
331.358	0.1419
331.699	0.1427
332.04	0.1434
332.38	0.145
332.721	0.1456
333.061	0.1458
333.402	0.1473
333.742	0.1484
334.083	0.148
334.423	0.1499
334.763	0.1519
335.103	0.1523
335.443	0.153
335.783	0.1538
336.123	0.1541
336.462	0.1547
336.802	0.156
337.141	0.1564
337.481	0.1576
337.82	0.1591
338.16	0.1593
338.499	0.1601
338.838	0.1605
339.177	0.162
339.516	0.1621
339.855	0.1631
340.194	0.1642
340.533	0.1649
340.872	0.1648
341.21	0.1658
341.549	0.1658
341.887	0.167
342.226	0.1674
342.564	0.1673
342.902	0.1679
343.24	0.1679
343.578	0.1689
343.916	0.1688
344.254	0.1703
344.592	0.1697
344.93	0.1701
345.268	0.1696
345.605	0.1699
345.943	0.1697
346.28	0.1701
346.618	0.1703
346.955	0.1705
347.292	0.171
347.629	0.1704
347.966	0.1706
348.303	0.1706
348.64	0.1718
348.977	0.1711
349.314	0.1711
349.65	0.1713
349.987	0.1712
350.324	0.1709
350.66	0.1717
350.996	0.1706
351.333	0.1703
351.669	0.1695
352.005	0.1701
352.341	0.1685
352.677	0.1682
353.013	0.1668
353.349	0.1673
353.685	0.1661
354.02	0.1659
354.356	0.166
354.691	0.1643
355.027	0.1641
355.362	0.1627
355.697	0.1627
356.033	0.1621
356.368	0.1617
356.703	0.1607
357.038	0.1611
357.373	0.1587
357.707	0.1587
358.042	0.1576
358.377	0.1576
358.711	0.1571
359.046	0.1561
359.38	0.1559
359.715	0.1548
360.049	0.1536
360.383	0.1531
360.717	0.1522
361.051	0.1513
361.385	0.1507
361.719	0.1494
362.053	0.149
362.387	0.1459
362.72	0.1456
363.054	0.1445
363.387	0.1438
363.721	0.1429
364.054	0.1416
364.387	0.1397
364.721	0.1381
365.054	0.1382
365.387	0.1365
365.72	0.1359
366.053	0.1345
366.385	0.1326
366.718	0.1322
367.051	0.1303
367.383	0.1298
367.716	0.13
368.048	0.1291
368.381	0.1283
368.713	0.1269
369.045	0.1259
369.377	0.1248
369.709	0.1243
370.041	0.1223
370.373	0.122
370.705	0.1209
371.037	0.1199
371.368	0.1192
371.7	0.1174
372.031	0.116
372.363	0.1154
372.694	0.1149
373.025	0.1124
373.356	0.1115
373.688	0.1102
374.019	0.1095
374.35	0.1071
374.68	0.1058
375.011	0.1041
375.342	0.1039
375.673	0.1018
376.003	0.1008
376.334	0.1001
376.664	0.0985
376.995	0.0975
377.325	0.0959
377.655	0.0952
377.985	0.0934
378.315	0.0931
378.645	0.0918
378.975	0.0914
379.305	0.0894
379.635	0.0896
379.964	0.0884
380.294	0.0877
380.623	0.0866
380.953	0.0853
381.282	0.0846
381.611	0.0843
381.941	0.0836
382.27	0.0822
382.599	0.0817
382.928	0.0803
383.257	0.0794
383.585	0.0791
383.914	0.0769
384.243	0.0765
384.571	0.0752
384.9	0.0744
385.228	0.0728
385.557	0.0713
385.885	0.0702
386.213	0.0697
386.541	0.0687
386.869	0.0679
387.197	0.066
387.525	0.0653
387.853	0.0642
388.181	0.0632
388.508	0.0621
388.836	0.0615
389.164	0.0606
389.491	0.0598
389.818	0.0583
390.146	0.0579
390.473	0.0566
390.8	0.0567
391.127	0.0554
391.454	0.0547
391.781	0.055
392.108	0.0538
392.435	0.0519
392.761	0.0517
393.088	0.0515
393.415	0.0509
393.741	0.0511
394.067	0.0515
394.394	0.0506
394.72	0.0489
395.046	0.0477
395.372	0.0478
395.698	0.0469
396.024	0.0466
396.35	0.0464
396.676	0.0451
397.001	0.0448
397.327	0.0435
397.653	0.0427
397.978	0.0426
398.303	0.0415
398.629	0.0413
398.954	0.041
399.279	0.0414
399.604	0.0398
399.929	0.0397
400.254	0.0383
400.579	0.038
400.904	0.0376
401.229	0.0379
401.553	0.0377
401.878	0.0373
402.202	0.0373
402.527	0.0363
402.851	0.0363
403.175	0.035
403.5	0.0357
403.824	0.0346
404.148	0.0343
404.472	0.0347
404.796	0.0342
405.119	0.0338
405.443	0.0336
405.767	0.0336
406.09	0.0338
406.414	0.0333
406.737	0.0333
407.061	0.0335
407.384	0.0333
407.707	0.0328
408.03	0.0325
408.353	0.0317
408.676	0.0319
408.999	0.0321
409.322	0.032
409.645	0.0318
409.968	0.0319
410.29	0.0318
410.613	0.0321
410.935	0.0312
411.258	0.032
411.58	0.031
411.902	0.0311
412.224	0.0308
412.546	0.0316
412.868	0.0324
413.19	0.0306
413.512	0.0312
413.834	0.031
414.156	0.0318
414.477	0.0307
414.799	0.031
415.121	0.0305
415.442	0.0306
415.763	0.0304
416.085	0.0308
416.406	0.03
416.727	0.031
417.048	0.031
417.369	0.031
417.69	0.0301
418.011	0.0306
418.331	0.0308
418.652	0.0304
418.973	0.0302
419.293	0.0312
419.614	0.0295
419.934	0.0316
420.254	0.0307
420.574	0.0294
420.895	0.03
421.215	0.0306
421.535	0.0299
421.855	0.0295
422.174	0.0294
422.494	0.0298
422.814	0.0297
423.134	0.0299
423.453	0.0301
423.773	0.0307
424.092	0.0306
424.411	0.0297
424.731	0.0304
425.05	0.0306
425.369	0.0303
425.688	0.0303
426.007	0.0309
426.326	0.0305
426.644	0.0296
426.963	0.0301
427.282	0.0301
427.6	0.0304
427.919	0.0304
428.237	0.0305
428.556	0.0306
428.874	0.0307
429.192	0.0303
429.51	0.0301
429.828	0.0301
430.146	0.0303
430.464	0.03
430.782	0.0298
431.1	0.0297
431.418	0.0295
431.735	0.0296
432.053	0.0303
432.37	0.0302
432.688	0.0292
433.005	0.0297
433.322	0.0309
433.639	0.0303
433.957	0.0299
434.274	0.0303
434.591	0.0302
434.907	0.0297
435.224	0.0296
435.541	0.0298
435.858	0.0303
436.174	0.0304
436.491	0.0296
436.807	0.0288
437.124	0.0294
437.44	0.03
437.756	0.0302
438.072	0.0287
438.388	0.0296
438.704	0.0294
439.02	0.0294
439.336	0.0297
439.652	0.0297
439.968	0.0294
440.283	0.0298
440.599	0.0297
440.914	0.0297
441.23	0.0298
441.545	0.0293
441.86	0.0294
442.175	0.0298
442.491	0.0289
442.806	0.0291
443.121	0.0284
443.435	0.0289
443.75	0.0282
444.065	0.0285
444.38	0.0283
444.694	0.0282
445.009	0.0287
445.323	0.0288
445.638	0.028
445.952	0.0281
446.266	0.0282
446.58	0.0276
446.894	0.0282
447.208	0.0278
447.522	0.027
447.836	0.0276
448.15	0.0271
448.464	0.0266
448.777	0.0277
449.091	0.0272
449.404	0.0267
449.718	0.0273
450.031	0.0266
450.345	0.0273
450.658	0.0268
450.971	0.0265
451.284	0.027
451.597	0.0273
451.91	0.0264
452.223	0.0266
452.535	0.0266
452.848	0.026
453.161	0.0266
453.473	0.027
453.786	0.0257
454.098	0.0258
454.411	0.0259
454.723	0.0257
455.035	0.0252
455.347	0.0255
455.659	0.0259
455.971	0.0263
456.283	0.0266
456.595	0.0257
456.907	0.0258
457.218	0.026
457.53	0.0255
457.841	0.0251
458.153	0.0247
458.464	0.0246
458.776	0.0249
459.087	0.0245
459.398	0.0242
459.709	0.0238
460.02	0.025
460.331	0.0243
460.642	0.0239
460.953	0.0241
461.263	0.0234
461.574	0.0232
461.885	0.0239
462.195	0.023
462.506	0.0235
462.816	0.0237
463.126	0.0229
463.437	0.0232
463.747	0.0225
464.057	0.0218
464.367	0.0214
464.677	0.0226
464.987	0.0218
465.296	0.0211
465.606	0.0215
465.916	0.0207
466.225	0.0213
466.535	0.0216
466.844	0.0218
467.154	0.0219
467.463	0.0217
467.772	0.021
468.081	0.0207
468.39	0.0209
468.699	0.0211
469.008	0.0215
469.317	0.0206
469.626	0.0208
469.935	0.0208
470.243	0.0209
470.552	0.0199
470.86	0.0203
471.169	0.0198
471.477	0.0193
471.785	0.019
472.093	0.0188
472.402	0.018
472.71	0.0186
473.018	0.0182
473.326	0.0184
473.633	0.0188
473.941	0.0188
474.249	0.0186
474.556	0.0186
474.864	0.0179
475.171	0.018
475.479	0.0172
475.786	0.0187
476.094	0.0172
476.401	0.0169
476.708	0.017
477.015	0.017
477.322	0.0163
477.629	0.0159
477.936	0.0166
478.242	0.016
478.549	0.0165
478.856	0.0159
479.162	0.0163
479.469	0.0158
479.775	0.016
480.081	0.0148
480.388	0.0147
480.694	0.015
481	0.015
481.306	0.0151
481.612	0.0146
481.918	0.0158
482.224	0.0151
482.53	0.0148
482.835	0.0149
483.141	0.0148
483.446	0.015
483.752	0.014
484.057	0.014
484.363	0.0135
484.668	0.0138
484.973	0.0136
485.278	0.0117
485.583	0.0118
485.888	0.0117
486.193	0.0107
486.498	0.0129
486.803	0.0128
487.107	0.0114
487.412	0.0107
487.717	0.0112
488.021	0.0123
488.325	0.0117
488.63	0.0116
488.934	0.0117
489.238	0.0107
489.542	0.0122
489.846	0.0109
490.15	0.011
490.454	0.0124
490.758	0.011
491.062	0.011
491.366	0.0105
491.669	0.0109
491.973	0.011
492.276	0.0103
492.58	0.0094
492.883	0.0108
493.186	0.0095
493.489	0.01
493.792	0.0086
494.096	0.0098
494.399	0.0088
494.701	0.0097
495.004	0.0084
495.307	0.0092
495.61	0.01
495.912	0.0098
496.215	0.0087
496.517	0.0094
496.82	0.0083
497.122	0.0089
497.424	0.0081
497.727	0.0088
498.029	0.0078
498.331	0.0084
498.633	0.0085
498.935	0.0077
499.237	0.0085
499.538	0.0077
499.84	0.0076
500.142	0.0076
500.443	0.0081
500.745	0.0087
501.046	0.0072
501.348	0.0068
501.649	0.0065
501.95	0.0079
502.251	0.0077
502.552	0.0063
502.853	0.0072
503.154	0.0078
503.455	0.006
503.756	0.0067
504.057	0.0059
504.357	0.0055
504.658	0.0059
504.958	0.0063
505.259	0.0063
505.559	0.0057
505.859	0.0049
506.16	0.0051
506.46	0.0062
506.76	0.005
507.06	0.0049
507.36	0.0053
507.66	0.0058
507.96	0.0072
508.259	0.0056
508.559	0.0046
508.859	0.0053
509.158	0.0055
509.457	0.0047
509.757	0.0048
510.056	0.0042
510.355	0.0055
510.655	0.0047
510.954	0.005
511.253	0.0044
511.552	0.0053
511.851	0.0048
512.149	0.0045
512.448	0.0047
512.747	0.0036
513.045	0.0038
513.344	0.0052
513.642	0.004
513.941	0.0051
514.239	0.0043
514.537	0.0045
514.836	0.0038
515.134	0.0038
515.432	0.0036
515.73	0.0038
516.028	0.0041
516.326	0.0031
516.623	0.0026
516.921	0.0036
517.219	0.0048
517.516	0.003
517.814	0.0043
518.111	0.0036
518.409	0.0044
518.706	0.004
519.003	0.0028
519.3	0.0033
519.597	0.0032
519.894	0.0031
520.191	0.0043
520.488	0.0044
520.785	0.0037
521.082	0.0039
521.378	0.0044
521.675	0.0033
521.971	0.0033
522.268	0.0039
522.564	0.0037
522.861	0.0036
523.157	0.0038
523.453	0.0043
523.749	0.0038
524.045	0.0026
524.341	0.0038
524.637	0.0026
524.933	0.004
525.229	0.0039
525.524	0.0027
525.82	0.0038
526.115	0.0032
526.411	0.0028
526.706	0.0027
527.002	0.003
527.297	0.0016
527.592	0.0034
527.887	0.0025
528.182	0.0022
528.477	0.0039
528.772	0.0021
529.067	0.0018
529.362	0.0028
529.657	0.0025
529.951	0.0029
530.246	0.0021
530.54	0.0028
530.835	0.0032
531.129	0.0035
531.423	0.002
531.718	0.0031
532.012	0.0029
532.306	0.0034
532.6	0.0034
532.894	0.0036
533.188	0.0021
533.482	0.0027
533.775	0.0027
534.069	0.0027
534.363	0.0019
534.656	0.0016
534.95	0.0024
535.243	0.0021
535.536	0.002
535.83	0.0019
536.123	0.0012
536.416	0.002
536.709	0.0017
537.002	0.0031
537.295	0.0024
537.588	0.0018
537.881	0.0016
538.173	0.0016
538.466	0.0021
538.759	0.0024
539.051	0.0028
539.344	0.0032
539.636	0.0016
539.928	0.0029
540.22	0.002
540.513	0.0031
540.805	0.0037
541.097	0.0024
541.389	0.0031
541.681	0.0028
541.972	0.0013
542.264	0.0029
542.556	0.0027
542.847	0.0026
543.139	0.0026
543.431	0.0015
543.722	0.0012
544.013	0.0018
544.305	0.0017
544.596	0.0018
544.887	0.002
545.178	0.0032
545.469	0.0028
545.76	0.0027
546.051	0.003
546.342	0.002
546.632	0.0029
546.923	0.0028
547.214	0.0012
547.504	0.003
547.795	0.0024
548.085	0.0018
548.375	0.0031
548.666	0.0032
548.956	0.0027
549.246	0.0045
549.536	0.0048
549.826	0.0036
550.116	0.0037
550.406	0.0039
550.695	0.0038
550.985	0.0043
551.275	0.0032
551.564	0.0051
551.854	0.0037
552.143	0.0038
552.433	0.0038
552.722	0.0036
553.011	0.0035
553.3	0.0038
553.589	0.0047
553.879	0.0035
554.167	0.0033
554.456	0.0027
554.745	0.0033
555.034	0.0039
555.323	0.0028
555.611	0.0026
555.9	0.0041
556.188	0.0028
556.477	0.0029
556.765	0.0043
557.053	0.0043
557.342	0.0023
557.63	0.0036
557.918	0.0039
558.206	0.0043
558.494	0.004
558.782	0.004
559.069	0.0038
559.357	0.0038
559.645	0.0039
559.932	0.0031
560.22	0.0031
560.507	0.0008
560.795	0.002
561.082	0.0015
561.37	0.0028
561.657	0.0016
561.944	0.0025
562.231	0.0025
562.518	0.0032
562.805	0.0041
563.092	0.0026
563.379	0.0024
563.665	0.0028
563.952	0.0039
564.239	0.0045
564.525	0.003
564.811	0.0035
565.098	0.0029
565.384	0.0034
565.67	0.0045
565.957	0.0045
566.243	0.0026
566.529	0.004
566.815	0.004
567.101	0.0036
567.387	0.0035
567.672	0.0024
567.958	0.0023
568.244	0.0022
568.529	0.0024
568.815	0.0024
569.1	0.0021
569.386	0.0033
569.671	0.0023
569.956	0.0019
570.242	0.0017
570.527	0.0012
570.812	0.0023
571.097	0.0017
571.382	0.0009
571.666	0.0011
571.951	0.0035
572.236	0.0012
572.521	0.003
572.805	0.0039
573.09	0.0025
573.374	0.001
573.659	0.0022
573.943	0.0021
574.227	0.0028
574.511	0.0016
574.795	0.003
575.079	0.002
575.363	0.0026
575.647	0.0028
575.931	0.0032
576.215	0.0029
576.499	0.0013
576.782	0.0017
577.066	0.0019
577.349	0.0024
577.633	0.0028
577.916	0.0015
578.2	0.0022
578.483	0.003
578.766	0.0036
579.049	0.0029
579.332	0.0026
579.615	0.0016
579.898	0.0011
580.181	0.0023
580.464	0.0028
580.746	0.0025
581.029	0.0026
581.312	0.0011
581.594	0.0002
581.877	0.002
582.159	0.0034
582.441	0.0018
582.724	0.0028
583.006	0.0037
583.288	0.0029
583.57	0.0029
583.852	0.0034
584.134	0.0027
584.416	0.0018
584.697	0.0021
584.979	0.0007
585.261	0.0014
585.542	0.0023
585.824	0.0025
586.105	0.0025
586.387	0.0033
586.668	0.0032
586.949	0.0029
587.231	0.0023
587.512	0.0021
587.793	0.0022
588.074	0.0031
588.355	0.0031
588.636	0.0022
588.916	0.003
589.197	0.0025
589.478	0.0032
589.758	0.0021
590.039	0.0015
590.319	0.0007
590.6	0.0019
590.88	0.0019
591.16	0.0025
591.441	0.0031
591.721	0.0021
592.001	0.0018
592.281	0.0028
592.561	0.0025
592.841	0.0014
593.12	0.0016
593.4	0.0023
593.68	0.0023
593.959	0.0016
594.239	0.0027
594.518	0.0041
594.798	0.0033
595.077	0.002
595.356	0.0031
595.636	0.0023
595.915	0.0026
596.194	0.0032
596.473	0.0028
596.752	0.0023
597.031	0.0023
597.31	0.0015
597.588	0.0017
597.867	0.0015
598.146	0.002
598.424	0.0013
598.703	0.0012
598.981	0.0005
599.259	0.0007
599.538	0.0028
599.816	0.0027
600.094	0.0014
600.372	0.0022
600.65	0.0031
600.928	0.0028
601.206	0.003
601.484	0.0023
601.762	0.0035
602.04	0.0034
602.317	0.0031
602.595	0.0042
602.872	0.004
603.15	0.0037
603.427	0.0006
603.704	0.0014
603.982	0.0015
604.259	0.0014
604.536	0.002
604.813	0.0026
605.09	0.0015
605.367	0.0006
605.644	0.0011
605.921	0.0014
606.197	0.0002
606.474	0.0024
606.751	0.0012
607.027	0.0014
607.304	0.0015
607.58	0.0018
607.856	0.0024
608.133	0.0033
608.409	0.0033
608.685	0.0024
608.961	0.003
609.237	0.003
609.513	0.0041
609.789	0.0023
610.065	0.0019
610.341	0.0014
610.616	0.0019
610.892	0.0021
611.167	0.0017
611.443	0.002
611.718	0.002
611.994	0.0011
612.269	0.0013
612.544	0.0018
612.819	0.0009
613.095	0.0012
613.37	0.001
613.645	0.0003
613.919	0.002
614.194	0.0015
614.469	0.0019
614.744	0.001
615.019	0.0003
615.293	0.001
615.568	0.0018
615.842	0.0015
616.116	0.0015
616.391	0.001
616.665	0.0004
616.939	0.0005
617.213	0.0014
617.488	0.0022
617.762	0.0018
618.035	0.0031
618.309	0.0019
618.583	0.0025
618.857	0.0031
619.131	0.0023
619.404	0.0022
619.678	0.0032
619.951	0.0022
620.225	0.0013
620.498	0.0015
620.771	0.0009
621.045	0.0015
621.318	0.0023
621.591	0.0017
621.864	0.0003
622.137	0.0003
622.41	0.0019
622.683	0.0014
622.956	0.0012
623.228	0.0019
623.501	0.0021
623.774	0.003
624.046	0.0024
624.319	0.0026
624.591	0.0012
624.863	0.0019
625.136	0.003
625.408	0.0031
625.68	0.0028
625.952	0.003
626.224	0.0038
626.496	0.0031
626.768	0.0028
627.04	0.0035
627.311	0.0026
627.583	0.0035
627.855	0.0041
628.126	0.002
628.398	0.0037
628.669	0.0029
628.941	0.0014
629.212	0.0003
629.483	0.0023
629.755	0.0006
630.026	0.002
630.297	0.0019
630.568	0.0018
630.839	0.0033
631.11	0.004
631.38	0.0037
631.651	0.0034
631.922	0.0033
632.192	0.0022
632.463	0.0034
632.733	0.0027
633.004	0.0027
633.274	0.0028
633.545	0.0021
633.815	0.0033
634.085	0.0031
634.355	0.0023
634.625	0.0033
634.895	0.003
635.165	0.0024
635.435	0.0028
635.705	0.0023
635.974	0.001
636.244	0.0015
636.514	0.0006
636.783	0.0009
637.053	0.001
637.322	0.0012
637.591	0.0005
637.861	0
638.13	0.0012
638.399	0.0025
638.668	0.003
638.937	0.0033
639.206	0.0032
639.475	0.0039
639.744	0.0035
640.013	0.0026
640.281	0.0033
640.55	0.0026
640.819	0.0023
641.087	0.0028
641.356	0.0031
641.624	0.0028
641.892	0.0034
642.161	0.0035
642.429	0.0036
642.697	0.0033
642.965	0.0035
643.233	0.0019
643.501	0.0018
643.769	0.0023
644.037	0.0021
644.305	0.0022
644.572	0.0003
644.84	0.002
645.108	0.0022
645.375	0.0029
645.643	0.0023
645.91	0.0026
646.177	0.0023
646.445	0.002
646.712	0.0028
646.979	0.0017
647.246	0.003
647.513	0.0016
647.78	0.0027
648.047	0.0001
648.314	0.0004
648.58	-0.0017
648.847	-0.001
649.114	-0.0022
649.38	-0.0013
649.647	-0.0007
649.913	0.0003
650.18	0.0007
650.446	0.0025
650.712	0.0021
650.978	0.0027
651.245	0.003
651.511	0.0028
651.777	0.0027
652.043	0.002
652.309	0.0029
652.574	0.0018
652.84	0.0027
653.106	0.0033
653.371	0.0039
653.637	0.0034
653.903	0.0035
654.168	0.003
654.433	0.0042
654.699	0.0031
654.964	0.0019
655.229	0.0007
655.494	0.0008
655.759	-0.0031
656.024	0.0005
656.289	-0
656.554	0.0037
656.819	0.0038
657.084	0.0041
657.349	0.0037
657.613	0.0034
657.878	0.0018
658.142	0.0016
658.407	0.0015
658.671	0.0025
658.936	0.0019
659.2	0.0029
659.464	0.0023
659.728	0.0027
659.992	0.001
660.256	0.0006
660.52	0.0015
660.784	0.0013
661.048	0.0021
661.312	0.0024
661.575	0.0022
661.839	0.0036
662.103	0.003
662.366	0.0021
662.63	0.0022
662.893	0.0016
663.156	0.0022
663.42	0.0033
663.683	0.0027
663.946	0.0039
664.209	0.0041
664.472	0.0032
664.735	0.0035
664.998	0.0049
665.261	0.0048
665.524	0.0048
665.786	0.0046
666.049	0.0036
666.312	0.0034
666.574	0.0039
666.837	0.0045
667.099	0.0038
667.361	0.0041
667.624	0.004
667.886	0.0038
668.148	0.0043
668.41	0.0049
668.672	0.0044
668.934	0.0041
669.196	0.0028
669.458	0.0024
669.72	0.0029
669.982	0.0025
670.243	0.0025
670.505	0.003
670.766	0.0018
671.028	0.0033
671.289	0.0038
671.551	0.003
671.812	0.001
672.073	0.0028
672.334	0.003
672.596	0.002
672.857	0.004
673.118	0.0044
673.379	0.0048
673.639	0.0046
673.9	0.0043
674.161	0.0035
674.422	0.0044
674.682	0.004
674.943	0.0032
675.203	0.0035
675.464	0.003
675.724	0.0022
675.985	0.0023
676.245	0.0022
676.505	0.0009
676.765	0.001
677.025	0.0024
677.285	0.0022
677.545	0.0017
677.805	0.0007
678.065	0.0019
678.325	0.004
678.585	0.0046
678.844	0.0035
679.104	0.0046
679.363	0.0052
679.623	0.0048
679.882	0.0049
680.142	0.0051
680.401	0.0049
680.66	0.006
680.919	0.0046
681.178	0.0052
681.437	0.0038
681.696	0.0031
681.955	0.0061
682.214	0.006
682.473	0.0058
682.732	0.0044
682.99	0.0054
683.249	0.0054
683.508	0.0042
683.766	0.0041
684.024	0.0041
684.283	0.0032
684.541	0.0017
684.799	0.0016
685.058	-0.0002
685.316	-0.0004
685.574	-0.0002
685.832	0.0007
686.09	0.0008
686.348	-0.0007
686.606	0.0012
686.863	0.0009
687.121	0.0011
687.379	0.0008
687.636	-0.0006
687.894	0.0011
688.151	0.0008
688.409	0.0019
688.666	0.0014
688.923	0.0025
689.181	0.0024
689.438	0.0019
689.695	0.0011
689.952	0.0012
690.209	0.0017
690.466	0.0007
690.723	0.0015
690.979	0.0002
691.236	-0.0001
691.493	-0.0009
691.75	0.0004
692.006	0.0004
692.263	-0.0008
692.519	-0.0002
692.775	-0.0021
693.032	-0.0015
693.288	-0.0018
693.544	-0.0013
693.8	0.0006
694.056	0.0006
694.313	0.0002
694.568	0.0014
694.824	0.001
695.08	0.0006
695.336	0.0013
695.592	0.0004
695.847	0.0024
696.103	0.0027
696.359	0.0039
696.614	0.003
696.869	0.0013
697.125	-0.0013
697.38	0.0003
697.635	0.0013
697.891	0.0028
698.146	0.0025
698.401	0.002
698.656	0.0016
698.911	0.0024
699.166	0.0013
699.42	0.0036
699.675	0.0036
699.93	0.0047
700.185	0.0035
700.439	0.0033
700.694	0.0027
700.948	0.002
701.203	0.0024
701.457	0.0019
701.711	0.002
701.965	0.0013
702.22	0.001
702.474	0.0004
702.728	0.0006
702.982	0.0013
703.236	0.0024
703.49	0.0028
703.743	0.0014
703.997	0.0023
704.251	0.0011
704.504	0.0018
704.758	0.0016
705.012	0.0019
705.265	0.003
705.518	0.0028
705.772	0.0035
706.025	0.004
706.278	0.004
706.531	0.0026
706.785	0.001
707.038	0.0002
707.291	0.0011
707.543	0.0001
707.796	-0.0002
708.049	0.0001
708.302	0.001
708.555	-0
708.807	0.0015
709.06	0.002
709.312	0.0032
709.565	0.0032
709.817	0.0045
710.069	0.0032
710.322	0.0037
710.574	0.0024
710.826	0.0018
711.078	0.0017
711.33	0.0017
711.582	0.001
711.834	0.0007
712.086	0.0021
712.338	0.0011
712.59	0.0002
712.841	-0.0021
713.093	-0.0005
713.344	0.0009
713.596	-0.0005
713.847	-0.0007
714.099	-0.0006
714.35	0.0007
714.601	-0.0009
714.853	-0.0014
715.104	-0.0002
715.355	-0.0014
715.606	0.0009
715.857	0.001
716.108	0.0024
716.359	0.0026
716.609	0.002
716.86	0.0033
717.111	0.0023
717.361	0.0017
717.612	0.0022
717.863	0.002
718.113	0.0026
718.363	0.001
718.614	0.0024
718.864	0.002
719.114	0.0017
719.364	0.0002
719.614	0.0017
719.865	0.0013
720.114	0.0021
720.364	0.0021
720.614	0.0015
720.864	0.0017
721.114	0.0007
721.364	0.0016
721.613	0.001
721.863	0.0001
722.112	0.0007
722.362	0.0005
722.611	0.0013
722.86	0.002
723.11	0.003
723.359	0.0025
723.608	0.0017
723.857	0.0029
724.106	0.002
724.355	0.0025
724.604	0.0013
724.853	0.0015
725.102	-0.0005
725.351	-0.0013
725.599	-0.0024
725.848	-0.0012
726.097	0.0003
726.345	-0.0006
726.594	0.0005
726.842	0.0017
727.09	0.0003
727.339	-0.0009
727.587	-0.0003
727.835	-0.001
728.083	-0.0008
728.331	-0.0008
728.579	0.0003
728.827	-0.0013
729.075	-0.0021
729.323	-0.0027
729.571	-0.002
729.818	-0.0031
730.066	-0.0011
730.314	-0.001
730.561	-0.0011
730.809	-0.0036
731.056	-0.0028
731.303	-0.0017
731.551	-0.0016
731.798	-0.002
732.045	-0.0004
732.292	-0.0003
732.539	-0.0008
732.786	-0.0017
733.033	-0.0018
733.28	-0.001
733.527	-0.0013
733.774	-0.0024
734.021	-0.0021
734.267	-0.0018
734.514	-0.0022
734.76	-0.0014
735.007	-0.0006
735.253	-0.0005
735.5	0.0012
735.746	0.0019
735.992	0.0015
736.238	0.0023
736.485	0.0022
736.731	0.0026
736.977	0.0008
737.223	0.0005
737.469	0.0005
737.715	0.0017
737.96	0.0021
738.206	0.0019
738.452	0.0025
738.697	0.0021
738.943	0.001
739.189	0.0002
739.434	-0.0003
739.679	0.0015
739.925	0.0029
740.17	0.0036
740.415	0.0031
740.66	0.003
740.906	0.0023
741.151	0.0021
741.396	0.0007
741.641	0.0007
741.886	0.0006
742.13	0.0003
742.375	0.0008
742.62	-0.0004
742.865	-0
743.109	0.0014
743.354	-0.0002
743.598	0.0001
743.843	-0.0012
744.087	-0.0012
744.331	-0.0006
744.576	-0.0005
744.82	0.0004
745.064	0.0016
745.308	0.0019
745.552	0.0012
745.796	-0.0002
746.04	0.0003
746.284	-0.0007
746.528	-0
746.771	0.0007
747.015	0.0005
747.259	-0.0007
747.502	-0.0007
747.746	0.0003
747.989	0.0014
748.233	0.002
748.476	0.0024
748.719	0.0029
748.963	0.002
749.206	0.0004
749.449	0.0001
749.692	-0
749.935	0.0008
750.178	0.0003
750.421	0.0002
750.664	0.0002
750.906	0.0003
751.149	-0.0005
751.392	0.0011
751.635	-0.0004
751.877	0.001
752.12	0.0004
752.362	0.0016
752.604	0.0016
752.847	0.001
753.089	0.0009
753.331	0.0015
753.573	0.0005
753.816	0.0016
754.058	0.002
754.3	0.0028
754.542	0.0027
754.783	0.0026
755.025	0.003
755.267	0.0026
755.509	0.0013
755.75	-0.0002
755.992	0.0014
756.234	0.002
756.475	0.002
756.716	0.0006
756.958	0.001
757.199	0.0016
757.44	0.0024
757.682	0.0005
757.923	0.0021
758.164	0.0028
758.405	0.0022
758.646	0.0024
758.887	0.0022
759.128	0.0029
759.369	0.0008
759.609	0.0003
759.85	0.0003
760.091	0.0012
760.331	0.0016
760.572	0.0013
760.812	0.0002
761.053	0.0014
761.293	0.0022
761.533	0.0032
761.774	0.0031
762.014	0.0032
762.254	0.0021
762.494	0.0023
762.734	0.0021
762.974	0.0016
763.214	0.0016
763.454	0.0021
763.694	0.0017
763.933	0.0042
764.173	0.0049
764.413	0.0037
764.652	0.0012
764.892	0.0012
765.131	0.0006
765.371	0.0002
765.61	0.0007
765.849	-0.0013
766.089	-0.0013
766.328	-0.0005
766.567	-0.0013
766.806	-0.0015
767.045	-0.0016
767.284	-0.0005
767.523	-0.0008
767.762	-0.0005
768.001	-0.0004
768.239	-0.0004
768.478	-0.0016
768.717	-0.0008
768.955	-0.001
769.194	0.0001
769.432	0.0008
769.671	0.0009
769.909	0.0005
770.148	0.0002
770.386	0.0003
770.624	-0.0004
770.862	-0.0003
771.1	-0.0006
771.338	-0.0016
771.576	-0.0007
771.814	0
772.052	0.0002
772.29	0.0013
772.528	0.0007
772.765	-0.0003
773.003	0.0011
773.24	0.0019
773.478	0.002
773.716	0.0026
773.953	0.0016
774.19	0.0012
774.428	0.0031
774.665	0.0026
774.902	0.0027
775.139	0.0018
775.376	0.0019
775.613	0.0023
775.85	0.0027
776.087	0.0039
776.324	0.0035
776.561	0.0023
776.798	0.0021
777.034	0.002
777.271	0.0017
777.508	0.0016
777.744	0.0026
777.981	0.002
778.217	0.0018
778.454	0.002
778.69	0.0009
778.926	0.0022
779.162	0.0014
779.399	0.0023
779.635	0.0024
779.871	0.0015
780.107	0.001
780.343	-0.0002
780.579	0.0011
780.814	0.0009
781.05	0.0011
781.286	0.0004
781.522	0.0002
781.757	-0.0008
781.993	0.0008
782.228	-0.0007
782.464	0.0006
782.699	0.0004
782.934	0.0002
783.17	0.0012
783.405	0.0013
783.64	0.0008
783.875	0.0003
784.11	0.001
784.345	0.0016
784.58	0.0021
784.815	0.0016
785.05	0.0008
785.285	0
785.52	0.0012
785.754	0.0013
785.989	0.0022
786.223	0.0034
786.458	0.0029
786.692	0.0039
786.927	0.0052
787.161	0.0049
787.396	0.005
787.63	0.004
787.864	0.0025
788.098	0.0012
788.332	0.001
788.566	0.0012
788.8	0.0009
789.034	0.0018
789.268	0.0012
789.502	0.0014
789.736	0.0017
789.969	0.0025
790.203	0.0023
790.437	0.0024
790.67	0.0036
790.904	0.0047
791.137	0.0058
791.37	0.0049
791.604	0.0054
791.837	0.006
792.07	0.0064
792.303	0.0062
792.537	0.0075
792.77	0.0068
793.003	0.0062
793.236	0.0041
793.469	0.0045
793.701	0.0029
793.934	0.0021
794.167	0.0009
794.4	0.0003
794.632	0.0004
794.865	0.0004
795.097	-0.0003
795.33	0.0001
795.562	0.0003
795.795	0
796.027	0.0012
796.259	0.0015
796.491	0.0007
796.724	0.0013
796.956	0.0011
797.188	0.0013
797.42	0.0015
797.652	0.0015
797.883	0.0019
798.115	0.0022
798.347	0.0026
798.579	0.0021
798.81	0.0022
799.042	0.0017
799.274	0.0034
799.505	0.0023
799.737	0.0022
799.968	0.0019
800.199	0.0016
800.431	0.0026
800.662	0.0015
800.893	0.0019
801.124	0.0024
801.355	0.0028
801.586	0.0048
801.817	0.0061
802.048	0.0063
802.279	0.0057
802.51	0.0073
802.741	0.0078
802.971	0.0065
803.202	0.0054
803.433	0.0044
803.663	0.0039
803.894	0.0032
804.124	0.0033
804.354	0.0046
804.585	0.0052
804.815	0.0051
805.045	0.0061
805.275	0.0044
805.506	0.0314
805.736	-0.1973
805.966	-0.2935
806.196	-0.2
