Data from 03 0.4 mM K2Cr2O7 0.25 M BQDS 1 M H2SO4 5 min_Absorbance_0122.txt Node
Date: Wed Dec 15 03:40:12 EST 2021
User: kwabilab-user
Spectrometer: HDX00518
Trigger mode: 0
Integration Time (sec): 5.000000E-2
Scans to average: 50
Nonlinearity correction enabled: false
Boxcar width: 0
Storing dark spectrum: false
XAxis mode: Wavelengths
Number of Pixels in Spectrum: 2068
>>>>>Begin Spectral Data<<<<<
195.27	-0.1358
195.642	0.0288
196.014	-0.1142
196.386	0.0746
196.758	-0.1178
197.129	-0.032
197.501	-0.0616
197.872	-0.0245
198.244	-0.0064
198.615	0.0181
198.986	0.0074
199.357	-0.0024
199.728	0.0226
200.099	0.0047
200.47	0.0022
200.841	-0.0029
201.212	0.0115
201.582	0.0199
201.953	0.003
202.323	0.0036
202.694	0.0087
203.064	-0.0163
203.434	0.0039
203.804	-0.0171
204.174	-0.0049
204.544	0.0048
204.914	-0.007
205.284	-0.0112
205.653	-0.0069
206.023	-0.0234
206.393	0.0102
206.762	-0.0043
207.131	-0.0005
207.501	0.0017
207.87	-0.0042
208.239	-0.0068
208.608	-0.0145
208.977	-0.0208
209.346	-0.004
209.715	-0.0019
210.083	-0.0224
210.452	-0.0095
210.82	-0.0021
211.189	-0.0261
211.557	-0.0002
211.925	-0.0097
212.294	-0.0298
212.662	0.0044
213.03	-0.0215
213.398	-0.0067
213.766	-0.0078
214.133	-0.0162
214.501	-0.0307
214.869	-0.0173
215.236	-0.0053
215.604	0.0161
215.971	0.0281
216.338	-0.0036
216.705	0.0087
217.072	0.0114
217.439	0.0003
217.806	-0.0008
218.173	0.0174
218.54	0.0129
218.907	0.0213
219.273	0.0309
219.64	0.0555
220.006	0.0389
220.373	0.0626
220.739	0.0746
221.105	0.1006
221.471	0.0976
221.837	0.1412
222.203	0.1259
222.569	0.1448
222.935	0.1695
223.3	0.1949
223.666	0.2019
224.031	0.2418
224.397	0.241
224.762	0.2722
225.127	0.3002
225.493	0.3257
225.858	0.3514
226.223	0.3738
226.588	0.4088
226.952	0.4021
227.317	0.4454
227.682	0.4399
228.046	0.453
228.411	0.4767
228.775	0.5036
229.14	0.5122
229.504	0.5165
229.868	0.5337
230.232	0.5437
230.596	0.5482
230.96	0.5646
231.324	0.5613
231.688	0.5741
232.052	0.591
232.415	0.5861
232.779	0.592
233.142	0.5876
233.505	0.6009
233.869	0.6005
234.232	0.5858
234.595	0.6037
234.958	0.6059
235.321	0.6068
235.684	0.6015
236.047	0.5961
236.409	0.5986
236.772	0.5954
237.134	0.5878
237.497	0.5922
237.859	0.6029
238.222	0.5922
238.584	0.5807
238.946	0.5878
239.308	0.5759
239.67	0.5896
240.032	0.5848
240.393	0.5745
240.755	0.5675
241.117	0.5748
241.478	0.5679
241.84	0.5726
242.201	0.5712
242.562	0.5601
242.924	0.5561
243.285	0.5487
243.646	0.5481
244.007	0.5507
244.368	0.5472
244.728	0.5417
245.089	0.533
245.45	0.5397
245.81	0.5387
246.171	0.5316
246.531	0.5317
246.891	0.5307
247.252	0.5274
247.612	0.5308
247.972	0.5299
248.332	0.5263
248.692	0.526
249.051	0.5208
249.411	0.5243
249.771	0.5211
250.13	0.5248
250.49	0.5252
250.849	0.5252
251.208	0.5208
251.568	0.5163
251.927	0.515
252.286	0.5138
252.645	0.5151
253.004	0.5143
253.363	0.5136
253.721	0.5117
254.08	0.5134
254.439	0.5146
254.797	0.5144
255.155	0.514
255.514	0.5084
255.872	0.5121
256.23	0.5074
256.588	0.5104
256.946	0.5076
257.304	0.5092
257.662	0.5132
258.02	0.5042
258.377	0.5008
258.735	0.5018
259.093	0.497
259.45	0.5029
259.807	0.5006
260.165	0.4982
260.522	0.5018
260.879	0.5017
261.236	0.499
261.593	0.4979
261.95	0.4929
262.306	0.4962
262.663	0.4883
263.02	0.4906
263.376	0.486
263.733	0.4841
264.089	0.486
264.445	0.485
264.802	0.482
265.158	0.4807
265.514	0.4835
265.87	0.4779
266.226	0.4756
266.581	0.4786
266.937	0.4735
267.293	0.4724
267.648	0.4687
268.004	0.4692
268.359	0.463
268.714	0.4597
269.07	0.458
269.425	0.4553
269.78	0.4554
270.135	0.4559
270.49	0.4495
270.844	0.4523
271.199	0.4474
271.554	0.4414
271.908	0.4413
272.263	0.4397
272.617	0.4386
272.972	0.4326
273.326	0.4324
273.68	0.4253
274.034	0.427
274.388	0.4223
274.742	0.4204
275.096	0.416
275.45	0.4122
275.803	0.4103
276.157	0.4048
276.51	0.4016
276.864	0.4019
277.217	0.3978
277.571	0.3971
277.924	0.3907
278.277	0.3882
278.63	0.3836
278.983	0.3821
279.336	0.3756
279.688	0.3746
280.041	0.3673
280.394	0.3645
280.746	0.3635
281.099	0.3611
281.451	0.3551
281.803	0.3533
282.156	0.3518
282.508	0.3458
282.86	0.3408
283.212	0.338
283.564	0.3362
283.916	0.3289
284.267	0.3251
284.619	0.3253
284.971	0.3204
285.322	0.3192
285.673	0.3154
286.025	0.3109
286.376	0.3063
286.727	0.3032
287.078	0.2997
287.429	0.2999
287.78	0.2929
288.131	0.2908
288.482	0.2853
288.833	0.283
289.183	0.2809
289.534	0.2765
289.884	0.2737
290.235	0.269
290.585	0.2679
290.935	0.2635
291.285	0.26
291.635	0.2576
291.985	0.255
292.335	0.2514
292.685	0.2478
293.035	0.2441
293.384	0.2418
293.734	0.2376
294.083	0.2346
294.433	0.2327
294.782	0.2306
295.131	0.2258
295.48	0.2229
295.829	0.2205
296.179	0.2173
296.527	0.2136
296.876	0.2114
297.225	0.2065
297.574	0.204
297.922	0.2021
298.271	0.1986
298.619	0.1942
298.968	0.1944
299.316	0.1915
299.664	0.1886
300.012	0.1852
300.36	0.1824
300.708	0.1805
301.056	0.1775
301.404	0.1757
301.752	0.173
302.099	0.1705
302.447	0.1694
302.794	0.1674
303.142	0.1645
303.489	0.1618
303.836	0.1593
304.183	0.1583
304.531	0.1565
304.878	0.1542
305.224	0.1527
305.571	0.1518
305.918	0.1507
306.265	0.1475
306.611	0.1462
306.958	0.146
307.304	0.1442
307.651	0.1429
307.997	0.1409
308.343	0.1399
308.689	0.1394
309.035	0.139
309.381	0.1371
309.727	0.136
310.073	0.1356
310.419	0.1353
310.764	0.1348
311.11	0.1333
311.455	0.1328
311.801	0.1319
312.146	0.1314
312.491	0.1314
312.837	0.1315
313.182	0.1301
313.527	0.1291
313.872	0.1293
314.216	0.1293
314.561	0.1288
314.906	0.1286
315.251	0.1297
315.595	0.1293
315.94	0.1286
316.284	0.1283
316.628	0.129
316.972	0.1291
317.317	0.1293
317.661	0.13
318.005	0.1299
318.348	0.1299
318.692	0.1306
319.036	0.1307
319.38	0.1316
319.723	0.132
320.067	0.1323
320.41	0.133
320.754	0.1333
321.097	0.1328
321.44	0.1343
321.783	0.1355
322.126	0.1361
322.469	0.1365
322.812	0.1376
323.155	0.1381
323.498	0.1387
323.84	0.1401
324.183	0.1409
324.525	0.1416
324.868	0.1429
325.21	0.1429
325.552	0.144
325.894	0.1448
326.236	0.1458
326.578	0.1466
326.92	0.1479
327.262	0.1487
327.604	0.1494
327.946	0.1512
328.287	0.1515
328.629	0.1523
328.97	0.1537
329.312	0.1547
329.653	0.1561
329.994	0.1574
330.335	0.1583
330.676	0.16
331.017	0.1605
331.358	0.1625
331.699	0.1631
332.04	0.1634
332.38	0.1651
332.721	0.1664
333.061	0.1668
333.402	0.1683
333.742	0.1695
334.083	0.1701
334.423	0.1716
334.763	0.1724
335.103	0.1728
335.443	0.1737
335.783	0.1751
336.123	0.1755
336.462	0.1768
336.802	0.1778
337.141	0.1788
337.481	0.1797
337.82	0.1803
338.16	0.1817
338.499	0.1825
338.838	0.1835
339.177	0.1842
339.516	0.185
339.855	0.1853
340.194	0.1863
340.533	0.1865
340.872	0.1875
341.21	0.1886
341.549	0.1899
341.887	0.1901
342.226	0.1896
342.564	0.1909
342.902	0.1916
343.24	0.1916
343.578	0.192
343.916	0.1919
344.254	0.1926
344.592	0.1933
344.93	0.1929
345.268	0.1926
345.605	0.1928
345.943	0.1929
346.28	0.1937
346.618	0.1932
346.955	0.1933
347.292	0.1946
347.629	0.1945
347.966	0.1939
348.303	0.1945
348.64	0.1943
348.977	0.194
349.314	0.1941
349.65	0.1937
349.987	0.1954
350.324	0.1937
350.66	0.1945
350.996	0.194
351.333	0.1934
351.669	0.1929
352.005	0.1927
352.341	0.1917
352.677	0.1912
353.013	0.1901
353.349	0.1901
353.685	0.1885
354.02	0.1881
354.356	0.187
354.691	0.1864
355.027	0.1864
355.362	0.1846
355.697	0.1843
356.033	0.1842
356.368	0.183
356.703	0.1822
357.038	0.1818
357.373	0.1806
357.707	0.1806
358.042	0.1793
358.377	0.1788
358.711	0.1785
359.046	0.177
359.38	0.1762
359.715	0.1757
360.049	0.1743
360.383	0.1733
360.717	0.172
361.051	0.1716
361.385	0.1704
361.719	0.1686
362.053	0.1686
362.387	0.1665
362.72	0.1659
363.054	0.1638
363.387	0.1629
363.721	0.1616
364.054	0.1607
364.387	0.1589
364.721	0.1574
365.054	0.156
365.387	0.1544
365.72	0.1541
366.053	0.1522
366.385	0.1502
366.718	0.1507
367.051	0.1487
367.383	0.1476
367.716	0.1473
368.048	0.1459
368.381	0.145
368.713	0.143
369.045	0.1423
369.377	0.1413
369.709	0.1413
370.041	0.1393
370.373	0.1385
370.705	0.1381
371.037	0.1358
371.368	0.1353
371.7	0.1333
372.031	0.1325
372.363	0.1313
372.694	0.13
373.025	0.1278
373.356	0.1271
373.688	0.1252
374.019	0.1242
374.35	0.1222
374.68	0.1203
375.011	0.1194
375.342	0.1179
375.673	0.116
376.003	0.1142
376.334	0.114
376.664	0.1126
376.995	0.1102
377.325	0.1099
377.655	0.1079
377.985	0.1066
378.315	0.1064
378.645	0.105
378.975	0.105
379.305	0.1028
379.635	0.1025
379.964	0.1009
380.294	0.101
380.623	0.0988
380.953	0.098
381.282	0.0972
381.611	0.0964
381.941	0.0956
382.27	0.0937
382.599	0.0933
382.928	0.092
383.257	0.0911
383.585	0.0908
383.914	0.0886
384.243	0.087
384.571	0.0863
384.9	0.0851
385.228	0.0834
385.557	0.0823
385.885	0.0806
386.213	0.0799
386.541	0.0782
386.869	0.0778
387.197	0.0759
387.525	0.075
387.853	0.0736
388.181	0.0736
388.508	0.0717
388.836	0.0707
389.164	0.0704
389.491	0.0684
389.818	0.068
390.146	0.0668
390.473	0.0662
390.8	0.0656
391.127	0.064
391.454	0.0635
391.781	0.063
392.108	0.0624
392.435	0.0608
392.761	0.061
393.088	0.06
393.415	0.0597
393.741	0.0594
394.067	0.0587
394.394	0.0581
394.72	0.0566
395.046	0.0556
395.372	0.055
395.698	0.0545
396.024	0.0538
396.35	0.0536
396.676	0.0523
397.001	0.0516
397.327	0.0512
397.653	0.0506
397.978	0.0502
398.303	0.0488
398.629	0.0481
398.954	0.0479
399.279	0.0476
399.604	0.0464
399.929	0.0461
400.254	0.0455
400.579	0.045
400.904	0.0445
401.229	0.0436
401.553	0.0436
401.878	0.0433
402.202	0.0435
402.527	0.0419
402.851	0.0423
403.175	0.0415
403.5	0.0418
403.824	0.0402
404.148	0.0405
404.472	0.0399
404.796	0.0409
405.119	0.0398
405.443	0.0391
405.767	0.0394
406.09	0.0396
406.414	0.0388
406.737	0.0388
407.061	0.0386
407.384	0.038
407.707	0.0379
408.03	0.038
408.353	0.0372
408.676	0.0376
408.999	0.0368
409.322	0.037
409.645	0.0376
409.968	0.0372
410.29	0.0368
410.613	0.0369
410.935	0.0361
411.258	0.0366
411.58	0.0358
411.902	0.0357
412.224	0.0362
412.546	0.0361
412.868	0.0374
413.19	0.0357
413.512	0.0361
413.834	0.0361
414.156	0.0367
414.477	0.0352
414.799	0.036
415.121	0.0359
415.442	0.0355
415.763	0.0354
416.085	0.0359
416.406	0.0352
416.727	0.0362
417.048	0.0353
417.369	0.0356
417.69	0.0354
418.011	0.0357
418.331	0.0358
418.652	0.0354
418.973	0.0348
419.293	0.0357
419.614	0.0345
419.934	0.036
420.254	0.0354
420.574	0.0349
420.895	0.035
421.215	0.0351
421.535	0.0348
421.855	0.0344
422.174	0.0343
422.494	0.0342
422.814	0.0352
423.134	0.0354
423.453	0.0351
423.773	0.0357
424.092	0.0351
424.411	0.0352
424.731	0.0354
425.05	0.0351
425.369	0.0352
425.688	0.0352
426.007	0.0351
426.326	0.0357
426.644	0.035
426.963	0.035
427.282	0.0346
427.6	0.0348
427.919	0.0353
428.237	0.0358
428.556	0.0358
428.874	0.0352
429.192	0.0357
429.51	0.0352
429.828	0.0352
430.146	0.0352
430.464	0.0349
430.782	0.0348
431.1	0.0347
431.418	0.0349
431.735	0.0346
432.053	0.035
432.37	0.0353
432.688	0.035
433.005	0.0341
433.322	0.0353
433.639	0.0349
433.957	0.0352
434.274	0.0353
434.591	0.0351
434.907	0.0348
435.224	0.0348
435.541	0.0352
435.858	0.0359
436.174	0.0356
436.491	0.0346
436.807	0.0342
437.124	0.0343
437.44	0.0344
437.756	0.0353
438.072	0.0347
438.388	0.0347
438.704	0.0346
439.02	0.0346
439.336	0.0346
439.652	0.0354
439.968	0.0347
440.283	0.0348
440.599	0.0344
440.914	0.0346
441.23	0.0345
441.545	0.0343
441.86	0.035
442.175	0.0348
442.491	0.0343
442.806	0.0341
443.121	0.033
443.435	0.0338
443.75	0.0331
444.065	0.0337
444.38	0.034
444.694	0.0332
445.009	0.0338
445.323	0.0338
445.638	0.0335
445.952	0.0336
446.266	0.033
446.58	0.0323
446.894	0.033
447.208	0.0328
447.522	0.0322
447.836	0.0333
448.15	0.0326
448.464	0.032
448.777	0.0321
449.091	0.0326
449.404	0.0323
449.718	0.0316
450.031	0.032
450.345	0.0327
450.658	0.0314
450.971	0.0315
451.284	0.0313
451.597	0.0324
451.91	0.0317
452.223	0.0316
452.535	0.0314
452.848	0.0315
453.161	0.0311
453.473	0.0317
453.786	0.0311
454.098	0.0309
454.411	0.0305
454.723	0.0307
455.035	0.0304
455.347	0.0306
455.659	0.0309
455.971	0.0311
456.283	0.0313
456.595	0.031
456.907	0.0308
457.218	0.0309
457.53	0.0297
457.841	0.0296
458.153	0.0295
458.464	0.0291
458.776	0.0295
459.087	0.0293
459.398	0.0297
459.709	0.0285
460.02	0.0294
460.331	0.029
460.642	0.0286
460.953	0.0288
461.263	0.0282
461.574	0.0277
461.885	0.0285
462.195	0.0273
462.506	0.0281
462.816	0.0287
463.126	0.0281
463.437	0.0277
463.747	0.0274
464.057	0.0265
464.367	0.0256
464.677	0.0269
464.987	0.0262
465.296	0.026
465.606	0.0258
465.916	0.0253
466.225	0.0261
466.535	0.0252
466.844	0.0261
467.154	0.0257
467.463	0.0261
467.772	0.0252
468.081	0.0255
468.39	0.0257
468.699	0.0254
469.008	0.0247
469.317	0.0247
469.626	0.0252
469.935	0.0239
470.243	0.0243
470.552	0.0237
470.86	0.0248
471.169	0.0234
471.477	0.0234
471.785	0.0235
472.093	0.0226
472.402	0.0223
472.71	0.0223
473.018	0.0215
473.326	0.0229
473.633	0.022
473.941	0.0228
474.249	0.0222
474.556	0.0223
474.864	0.0217
475.171	0.0218
475.479	0.0213
475.786	0.0221
476.094	0.0215
476.401	0.0214
476.708	0.0209
477.015	0.0209
477.322	0.0201
477.629	0.0198
477.936	0.0202
478.242	0.0201
478.549	0.0199
478.856	0.0199
479.162	0.0197
479.469	0.0196
479.775	0.0188
480.081	0.0179
480.388	0.0178
480.694	0.0185
481	0.0187
481.306	0.0188
481.612	0.019
481.918	0.0187
482.224	0.0181
482.53	0.0185
482.835	0.0182
483.141	0.018
483.446	0.018
483.752	0.0171
484.057	0.0163
484.363	0.0172
484.668	0.0169
484.973	0.0166
485.278	0.0155
485.583	0.015
485.888	0.016
486.193	0.015
486.498	0.0161
486.803	0.0155
487.107	0.0153
487.412	0.0141
487.717	0.0151
488.021	0.015
488.325	0.0146
488.63	0.0153
488.934	0.0155
489.238	0.0149
489.542	0.0139
489.846	0.0138
490.15	0.0144
490.454	0.015
490.758	0.0133
491.062	0.0132
491.366	0.0137
491.669	0.0132
491.973	0.0136
492.276	0.0136
492.58	0.013
492.883	0.0138
493.186	0.0121
493.489	0.0135
493.792	0.0119
494.096	0.0117
494.399	0.0118
494.701	0.012
495.004	0.0112
495.307	0.0125
495.61	0.0126
495.912	0.0126
496.215	0.0124
496.517	0.0121
496.82	0.0112
497.122	0.0121
497.424	0.0118
497.727	0.0113
498.029	0.0111
498.331	0.0113
498.633	0.0105
498.935	0.0106
499.237	0.0113
499.538	0.01
499.84	0.0104
500.142	0.0099
500.443	0.0097
500.745	0.0104
501.046	0.01
501.348	0.0089
501.649	0.0095
501.95	0.0092
502.251	0.0094
502.552	0.0085
502.853	0.0097
503.154	0.0096
503.455	0.009
503.756	0.0093
504.057	0.0082
504.357	0.0087
504.658	0.0075
504.958	0.0076
505.259	0.0088
505.559	0.008
505.859	0.0078
506.16	0.0074
506.46	0.0074
506.76	0.0067
507.06	0.0072
507.36	0.007
507.66	0.0079
507.96	0.0086
508.259	0.008
508.559	0.0074
508.859	0.0078
509.158	0.0076
509.457	0.0065
509.757	0.0071
510.056	0.006
510.355	0.0064
510.655	0.0054
510.954	0.0063
511.253	0.0072
511.552	0.0071
511.851	0.0064
512.149	0.0066
512.448	0.0052
512.747	0.0065
513.045	0.0066
513.344	0.0059
513.642	0.0062
513.941	0.0052
514.239	0.006
514.537	0.0058
514.836	0.0054
515.134	0.006
515.432	0.0053
515.73	0.006
516.028	0.0053
516.326	0.0046
516.623	0.0046
516.921	0.0054
517.219	0.0061
517.516	0.0041
517.814	0.0057
518.111	0.0049
518.409	0.0049
518.706	0.0045
519.003	0.0042
519.3	0.0044
519.597	0.0053
519.894	0.0039
520.191	0.0054
520.488	0.0052
520.785	0.0042
521.082	0.0064
521.378	0.0045
521.675	0.0037
521.971	0.0045
522.268	0.0043
522.564	0.0045
522.861	0.0053
523.157	0.0045
523.453	0.0039
523.749	0.0039
524.045	0.0037
524.341	0.0046
524.637	0.0038
524.933	0.0041
525.229	0.004
525.524	0.0032
525.82	0.0038
526.115	0.0047
526.411	0.0042
526.706	0.0042
527.002	0.0036
527.297	0.0026
527.592	0.0041
527.887	0.0035
528.182	0.0026
528.477	0.0043
528.772	0.0034
529.067	0.0041
529.362	0.0036
529.657	0.0034
529.951	0.0028
530.246	0.0024
530.54	0.0026
530.835	0.0027
531.129	0.0035
531.423	0.0035
531.718	0.0025
532.012	0.0021
532.306	0.0034
532.6	0.0021
532.894	0.003
533.188	0.0019
533.482	0.0022
533.775	0.0021
534.069	0.0029
534.363	0.0019
534.656	0.0021
534.95	0.0031
535.243	0.0017
535.536	0.0016
535.83	0.0024
536.123	0.0018
536.416	0.0027
536.709	0.0025
537.002	0.0042
537.295	0.0032
537.588	0.0033
537.881	0.0021
538.173	0.0029
538.466	0.0025
538.759	0.0035
539.051	0.0046
539.344	0.0033
539.636	0.0034
539.928	0.0039
540.22	0.0032
540.513	0.0041
540.805	0.003
541.097	0.0035
541.389	0.0033
541.681	0.0038
541.972	0.0023
542.264	0.0036
542.556	0.0036
542.847	0.0035
543.139	0.0043
543.431	0.0023
543.722	0.003
544.013	0.0028
544.305	0.0039
544.596	0.0033
544.887	0.0043
545.178	0.005
545.469	0.0037
545.76	0.003
546.051	0.0037
546.342	0.0034
546.632	0.0022
546.923	0.0026
547.214	0.0022
547.504	0.0037
547.795	0.0017
548.085	0.0032
548.375	0.0027
548.666	0.0034
548.956	0.0037
549.246	0.0046
549.536	0.003
549.826	0.0041
550.116	0.0045
550.406	0.0033
550.695	0.0033
550.985	0.004
551.275	0.0043
551.564	0.0053
551.854	0.0055
552.143	0.0036
552.433	0.0043
552.722	0.0032
553.011	0.0038
553.3	0.0036
553.589	0.0046
553.879	0.0037
554.167	0.003
554.456	0.0038
554.745	0.0039
555.034	0.005
555.323	0.0035
555.611	0.0039
555.9	0.0045
556.188	0.0027
556.477	0.002
556.765	0.0036
557.053	0.0037
557.342	0.0032
557.63	0.0031
557.918	0.0031
558.206	0.0033
558.494	0.004
558.782	0.0036
559.069	0.0045
559.357	0.0029
559.645	0.0034
559.932	0.0039
560.22	0.0039
560.507	0.0024
560.795	0.0034
561.082	0.0022
561.37	0.0031
561.657	0.0022
561.944	0.0024
562.231	0.0026
562.518	0.0016
562.805	0.0028
563.092	0.0029
563.379	0.0027
563.665	0.0035
563.952	0.0044
564.239	0.0044
564.525	0.0039
564.811	0.0038
565.098	0.0032
565.384	0.0026
565.67	0.0037
565.957	0.0033
566.243	0.0038
566.529	0.0038
566.815	0.0033
567.101	0.0024
567.387	0.0022
567.672	0.0027
567.958	0.0023
568.244	0.0018
568.529	0.0024
568.815	0.0025
569.1	0.0023
569.386	0.0033
569.671	0.0031
569.956	0.0027
570.242	0.0025
570.527	0.002
570.812	0.003
571.097	0.0023
571.382	0.0007
571.666	0.0029
571.951	0.0035
572.236	0.0026
572.521	0.0033
572.805	0.0032
573.09	0.0034
573.374	0.0019
573.659	0.0021
573.943	0.0028
574.227	0.0032
574.511	0.0038
574.795	0.0035
575.079	0.0033
575.363	0.0026
575.647	0.0029
575.931	0.0021
576.215	0.0029
576.499	0.0025
576.782	0.0021
577.066	0.0027
577.349	0.0034
577.633	0.0036
577.916	0.0031
578.2	0.0028
578.483	0.0038
578.766	0.0037
579.049	0.0025
579.332	0.0028
579.615	0.0025
579.898	0.0015
580.181	0.0027
580.464	0.0032
580.746	0.0022
581.029	0.0031
581.312	0.0023
581.594	0.002
581.877	0.0026
582.159	0.0039
582.441	0.0022
582.724	0.0032
583.006	0.0033
583.288	0.0028
583.57	0.0029
583.852	0.0032
584.134	0.0033
584.416	0.0029
584.697	0.0029
584.979	0.0023
585.261	0.002
585.542	0.0032
585.824	0.0038
586.105	0.0027
586.387	0.0032
586.668	0.0029
586.949	0.0037
587.231	0.0037
587.512	0.0029
587.793	0.0027
588.074	0.0026
588.355	0.003
588.636	0.002
588.916	0.0025
589.197	0.0025
589.478	0.003
589.758	0.0027
590.039	0.0022
590.319	0.0019
590.6	0.0021
590.88	0.0025
591.16	0.003
591.441	0.0033
591.721	0.002
592.001	0.0021
592.281	0.0031
592.561	0.0032
592.841	0.0024
593.12	0.0026
593.4	0.0031
593.68	0.0029
593.959	0.0023
594.239	0.0028
594.518	0.0036
594.798	0.0033
595.077	0.0022
595.356	0.0026
595.636	0.0029
595.915	0.0018
596.194	0.0023
596.473	0.0026
596.752	0.0022
597.031	0.002
597.31	0.0008
597.588	0.0013
597.867	0.001
598.146	0.0013
598.424	0.0013
598.703	0.0025
598.981	0.0015
599.259	0.0019
599.538	0.003
599.816	0.0031
600.094	0.003
600.372	0.0026
600.65	0.0038
600.928	0.0034
601.206	0.0032
601.484	0.0028
601.762	0.0029
602.04	0.0037
602.317	0.003
602.595	0.0027
602.872	0.0032
603.15	0.0035
603.427	0.0022
603.704	0.0021
603.982	0.0019
604.259	0.0022
604.536	0.0021
604.813	0.0015
605.09	0.0017
605.367	0.0022
605.644	0.0013
605.921	0.0021
606.197	0.0013
606.474	0.002
606.751	0.0017
607.027	0.0022
607.304	0.002
607.58	0.0026
607.856	0.0028
608.133	0.0034
608.409	0.0037
608.685	0.0027
608.961	0.003
609.237	0.0027
609.513	0.0037
609.789	0.0019
610.065	0.0024
610.341	0.0011
610.616	0.0023
610.892	0.0025
611.167	0.0034
611.443	0.0038
611.718	0.0027
611.994	0.0026
612.269	0.0028
612.544	0.002
612.819	0.0025
613.095	0.0022
613.37	0.0017
613.645	0.0013
613.919	0.002
614.194	0.0022
614.469	0.0026
614.744	0.0018
615.019	0.0014
615.293	0.0019
615.568	0.0011
615.842	0.0015
616.116	0.0016
616.391	0.0009
616.665	0.0007
616.939	0.0012
617.213	0.0011
617.488	0.0021
617.762	0.0019
618.035	0.0029
618.309	0.0022
618.583	0.0026
618.857	0.003
619.131	0.0013
619.404	0.0021
619.678	0.0025
619.951	0.0013
620.225	0.0007
620.498	0.0015
620.771	0.0009
621.045	0.0023
621.318	0.0023
621.591	0.0016
621.864	0.0007
622.137	0.0009
622.41	0.0008
622.683	0.0006
622.956	0.0002
623.228	0.0011
623.501	0.0018
623.774	0.0023
624.046	0.0011
624.319	0.0016
624.591	0.0015
624.863	0.0015
625.136	0.0024
625.408	0.0032
625.68	0.0028
625.952	0.0021
626.224	0.003
626.496	0.0023
626.768	0.002
627.04	0.001
627.311	0.0012
627.583	0.0019
627.855	0.002
628.126	0.0009
628.398	0.0007
628.669	0.0006
628.941	0.0001
629.212	-0.0003
629.483	0.0009
629.755	0.0002
630.026	0.0011
630.297	0.0003
630.568	0.0006
630.839	0.0015
631.11	0.0018
631.38	0.0026
631.651	0.0019
631.922	0.0027
632.192	0.0017
632.463	0.0013
632.733	0.001
633.004	0.0012
633.274	0.0009
633.545	0.0008
633.815	0.0022
634.085	0.002
634.355	0.0011
634.625	0.0014
634.895	0.0013
635.165	0.0004
635.435	0.0017
635.705	0.0013
635.974	-0.0001
636.244	0.0011
636.514	-0.0002
636.783	-0.0008
637.053	0.0003
637.322	0.0005
637.591	-0.0001
637.861	-0.0005
638.13	-0.001
638.399	0.0005
638.668	0.0009
638.937	0.0014
639.206	0.0016
639.475	0.0013
639.744	0.0003
640.013	0.0007
640.281	0.0003
640.55	-0.0002
640.819	0.0011
641.087	-0.0001
641.356	0.0009
641.624	0.0012
641.892	0.0013
642.161	0.0013
642.429	0.0007
642.697	-0.0001
642.965	-0.0001
643.233	-0.0025
643.501	-0.0003
643.769	-0.0001
644.037	-0.0004
644.305	-0.0009
644.572	-0.0021
644.84	-0.0021
645.108	-0
645.375	-0.0005
645.643	-0.0007
645.91	0.0004
646.177	0.0017
646.445	0.0001
646.712	-0.0002
646.979	-0.0004
647.246	0.0004
647.513	0.0006
647.78	-0.0004
648.047	-0.0021
648.314	-0.0014
648.58	-0.0023
648.847	-0.0022
649.114	-0.0025
649.38	-0.0014
649.647	-0.002
649.913	-0.0006
650.18	-0.0004
650.446	0
650.712	0.0013
650.978	0.0012
651.245	0.0015
651.511	0.0021
651.777	0.002
652.043	0.0005
652.309	0.0012
652.574	0.0002
652.84	0.001
653.106	0.0014
653.371	0.0018
653.637	0.0022
653.903	0.0003
654.168	0.0008
654.433	-0.0001
654.699	0.0001
654.964	-0.001
655.229	-0.0005
655.494	0.0017
655.759	-0.0003
656.024	0.0004
656.289	-0
656.554	0.0024
656.819	0.0019
657.084	0.0014
657.349	0.001
657.613	-0.0003
657.878	-0.0008
658.142	-0.0001
658.407	0.0006
658.671	0.0008
658.936	-0.0001
659.2	0.0015
659.464	0.0009
659.728	0.0001
659.992	-0.0007
660.256	-0.0021
660.52	-0.0011
660.784	-0.0013
661.048	-0.0006
661.312	-0.0004
661.575	-0.0001
661.839	0.0005
662.103	0.0004
662.366	0.0003
662.63	0.0012
662.893	0.0003
663.156	0.001
663.42	0.0019
663.683	0.0009
663.946	0.0009
664.209	0.0011
664.472	0.0014
664.735	0.0015
664.998	0.0024
665.261	0.0032
665.524	0.0025
665.786	0.0024
666.049	0.002
666.312	0.0019
666.574	0.0009
666.837	0.0032
667.099	0.0016
667.361	0.0019
667.624	0.0015
667.886	0.0007
668.148	0.0015
668.41	0.0018
668.672	0.0027
668.934	0.0017
669.196	0.001
669.458	-0.0004
669.72	0.0005
669.982	0.0003
670.243	0.0001
670.505	0.0008
670.766	0
671.028	0.0009
671.289	0.0018
671.551	0.0019
671.812	0.0004
672.073	0.0008
672.334	0.0007
672.596	-0.0004
672.857	0.0006
673.118	0.0012
673.379	0.002
673.639	0.0007
673.9	0.0017
674.161	-0.0007
674.422	0.0004
674.682	-0.0008
674.943	-0.001
675.203	-0.0005
675.464	0.0004
675.724	0.0001
675.985	0.0009
676.245	-0.0001
676.505	-0.0004
676.765	-0.0002
677.025	0.0007
677.285	-0.0005
677.545	-0.0014
677.805	-0.0005
678.065	0.0003
678.325	0.0002
678.585	0.0015
678.844	0.0017
679.104	0.0025
679.363	0.0032
679.623	0.0027
679.882	0.0032
680.142	0.0025
680.401	0.0026
680.66	0.0035
680.919	0.0013
681.178	0.0025
681.437	0.0018
681.696	0.0019
681.955	0.0041
682.214	0.003
682.473	0.0028
682.732	0.0012
682.99	0.003
683.249	0.0021
683.508	0.0012
683.766	0.0007
684.024	0.0007
684.283	-0.0008
684.541	-0.0001
684.799	-0.0007
685.058	-0.0016
685.316	-0.0015
685.574	-0.0021
685.832	-0.0004
686.09	-0.0013
686.348	-0.002
686.606	-0.0017
686.863	-0.0024
687.121	-0.0018
687.379	-0.0028
687.636	-0.0023
687.894	-0.0028
688.151	-0.0026
688.409	-0.0017
688.666	-0.0012
688.923	-0.001
689.181	-0.0014
689.438	-0.002
689.695	-0.0017
689.952	-0.0017
690.209	-0.0021
690.466	-0.0021
690.723	-0.002
690.979	-0.0023
691.236	-0.0029
691.493	-0.003
691.75	-0.0034
692.006	-0.002
692.263	-0.0024
692.519	-0.0028
692.775	-0.0039
693.032	-0.0033
693.288	-0.0049
693.544	-0.0034
693.8	-0.0015
694.056	-0.0033
694.313	-0.002
694.568	-0.0016
694.824	-0.0014
695.08	-0.0016
695.336	-0.0007
695.592	-0.0017
695.847	0.0002
696.103	0.0001
696.359	0.0008
696.614	-0.0002
696.869	-0.0012
697.125	-0.0017
697.38	-0.0013
697.635	0.0001
697.891	0.0007
698.146	-0.0001
698.401	0.0006
698.656	0.0003
698.911	0.0012
699.166	0.0008
699.42	0.0018
699.675	0.0014
699.93	0.0019
700.185	0.0015
700.439	0.0012
700.694	0.0013
700.948	0.0007
701.203	0.0017
701.457	0.0013
701.711	0.0001
701.965	-0.0007
702.22	-0.0005
702.474	0.0003
702.728	0
702.982	0.0004
703.236	0.0004
703.49	0.0005
703.743	-0.0007
703.997	-0.0006
704.251	-0.0005
704.504	0.0004
704.758	0.0008
705.012	0.0016
705.265	0.0018
705.518	0.0014
705.772	0.0013
706.025	0.0011
706.278	-0.0002
706.531	-0.0001
706.785	-0.0018
707.038	-0.0018
707.291	-0.0013
707.543	-0.001
707.796	-0.0015
708.049	-0.0007
708.302	-0.0009
708.555	-0.0009
708.807	0.0002
709.06	-0.0002
709.312	0.0017
709.565	0.0001
709.817	0.0021
710.069	0.0008
710.322	0.0012
710.574	0.0011
710.826	0.0011
711.078	0.0003
711.33	-0.0003
711.582	-0.0004
711.834	-0.0006
712.086	-0.0007
712.338	-0.0003
712.59	-0.0009
712.841	-0.0014
713.093	-0.0013
713.344	-0.0011
713.596	-0.002
713.847	-0.0027
714.099	-0.003
714.35	-0.0022
714.601	-0.0035
714.853	-0.004
715.104	-0.0027
715.355	-0.0024
715.606	-0.0006
715.857	-0.0015
716.108	-0.0009
716.359	-0.0006
716.609	-0.002
716.86	-0.0007
717.111	-0.0015
717.361	-0.0015
717.612	-0.0009
717.863	-0.0012
718.113	-0.0004
718.363	-0.0002
718.614	0.0004
718.864	0.0006
719.114	-0.0004
719.364	-0.0019
719.614	-0.0013
719.865	-0.0012
720.114	-0.0006
720.364	-0.0005
720.614	-0.0016
720.864	-0.0021
721.114	-0.0032
721.364	-0.003
721.613	-0.0021
721.863	-0.0025
722.112	-0.0024
722.362	-0.002
722.611	-0.002
722.86	-0.0016
723.11	-0.0001
723.359	-0.0003
723.608	-0.0002
723.857	0.0014
724.106	0.0011
724.355	-0.0001
724.604	-0.0002
724.853	-0.0004
725.102	-0.0022
725.351	-0.003
725.599	-0.003
725.848	-0.0023
726.097	-0.0007
726.345	-0.0014
726.594	-0.0011
726.842	0.0005
727.09	-0.0013
727.339	-0.0015
727.587	-0.0014
727.835	-0.0027
728.083	-0.0029
728.331	-0.0034
728.579	-0.002
728.827	-0.0025
729.075	-0.0035
729.323	-0.0038
729.571	-0.0036
729.818	-0.0039
730.066	-0.0033
730.314	-0.0024
730.561	-0.0027
730.809	-0.0038
731.056	-0.003
731.303	-0.0031
731.551	-0.0027
731.798	-0.0031
732.045	-0.0019
732.292	-0.0027
732.539	-0.0023
732.786	-0.003
733.033	-0.0031
733.28	-0.0026
733.527	-0.003
733.774	-0.0038
734.021	-0.003
734.267	-0.0028
734.514	-0.0026
734.76	-0.0022
735.007	-0.0022
735.253	-0.0013
735.5	0.001
735.746	0.0016
735.992	0.0011
736.238	0.0007
736.485	-0
736.731	0.001
736.977	-0
737.223	-0.0011
737.469	-0.0009
737.715	-0.0005
737.96	-0.0007
738.206	-0.0011
738.452	-0.0018
738.697	-0.0014
738.943	-0.0019
739.189	-0.0008
739.434	-0.0017
739.679	-0.0008
739.925	0.0013
740.17	0.0014
740.415	0.0006
740.66	0.0012
740.906	0.0007
741.151	0.0003
741.396	-0.0001
741.641	-0.0006
741.886	0.0006
742.13	0.0008
742.375	0.0014
742.62	0
742.865	0.0008
743.109	0.0005
743.354	0.0008
743.598	0.0002
743.843	-0.0006
744.087	-0.0007
744.331	-0.001
744.576	-0.0012
744.82	-0.0007
745.064	-0.0004
745.308	-0.0002
745.552	-0
745.796	-0.0012
746.04	-0.0003
746.284	-0.0004
746.528	0
746.771	-0.0006
747.015	-0.0008
747.259	-0.0018
747.502	-0.0022
747.746	-0.0005
747.989	-0.0008
748.233	0.0002
748.476	0.0001
748.719	0.0012
748.963	0.0005
749.206	0.0007
749.449	-0
749.692	-0.0005
749.935	-0.0001
750.178	-0.0011
750.421	-0.0016
750.664	-0.0022
750.906	-0.0018
751.149	-0.0024
751.392	-0.002
751.635	-0.0019
751.877	-0.0015
752.12	-0.0012
752.362	-0.0003
752.604	-0.0005
752.847	-0.0005
753.089	-0.0008
753.331	-0.0003
753.573	-0.0003
753.816	-0
754.058	0.0001
754.3	0.0002
754.542	0.0001
754.783	-0.0001
755.025	0.0007
755.267	0.0002
755.509	0.001
755.75	-0.001
755.992	-0
756.234	0.0004
756.475	0.0012
756.716	0.001
756.958	0.0009
757.199	0.0008
757.44	0.0008
757.682	-0.0002
757.923	0.0006
758.164	0.0004
758.405	-0.0004
758.646	0
758.887	-0.0012
759.128	-0.0015
759.369	-0.0028
759.609	-0.0029
759.85	-0.0019
760.091	-0.0011
760.331	-0.0014
760.572	-0.0012
760.812	-0.0021
761.053	-0.0005
761.293	-0.0005
761.533	0.0002
761.774	-0.0005
762.014	-0.0009
762.254	-0.0005
762.494	-0.0003
762.734	-0.0006
762.974	-0.0011
763.214	-0.0012
763.454	-0.0002
763.694	-0.0002
763.933	0.0009
764.173	0.0015
764.413	0.0016
764.652	-0.0005
764.892	-0.0012
765.131	-0.0016
765.371	-0.0015
765.61	-0.0021
765.849	-0.0027
766.089	-0.0034
766.328	-0.0027
766.567	-0.0034
766.806	-0.0024
767.045	-0.0042
767.284	-0.0034
767.523	-0.0036
767.762	-0.004
768.001	-0.0032
768.239	-0.0017
768.478	-0.002
768.717	-0.0033
768.955	-0.0031
769.194	-0.0025
769.432	-0.0025
769.671	-0.002
769.909	-0.0023
770.148	-0.0026
770.386	-0.0023
770.624	-0.0022
770.862	-0.0023
771.1	-0.0027
771.338	-0.003
771.576	-0.0022
771.814	-0.0009
772.052	-0.002
772.29	-0
772.528	-0.0008
772.765	-0.0018
773.003	-0.0006
773.24	-0.0005
773.478	-0.0008
773.716	0.0012
773.953	-0
774.19	-0.0002
774.428	0.0013
774.665	0.0015
774.902	0.0008
775.139	0.0005
775.376	-0.0002
775.613	-0.0003
775.85	-0.0003
776.087	-0.0007
776.324	-0.0012
776.561	-0.0013
776.798	-0.001
777.034	-0.0007
777.271	-0.0008
777.508	-0.0008
777.744	0.0012
777.981	0
778.217	-0.0008
778.454	-0.0015
778.69	-0.0016
778.926	-0.0009
779.162	-0.0009
779.399	0.0003
779.635	-0.001
779.871	-0.0014
780.107	-0.0016
780.343	-0.0025
780.579	-0.0022
780.814	-0.0024
781.05	-0.002
781.286	-0.0017
781.522	-0.0033
781.757	-0.0029
781.993	-0.0015
782.228	-0.0024
782.464	-0.0009
782.699	-0.0006
782.934	-0.0014
783.17	-0.0019
783.405	-0.0009
783.64	-0.0013
783.875	-0.0012
784.11	-0.0013
784.345	-0.0007
784.58	-0.0003
784.815	-0.0009
785.05	-0.0014
785.285	-0.0018
785.52	-0.0009
785.754	-0.0009
785.989	-0.0001
786.223	0.0008
786.458	0.0012
786.692	0.0017
786.927	0.003
787.161	0.0026
787.396	0.0027
787.63	0.0026
787.864	0.0014
788.098	-0
788.332	0.0002
788.566	-0
788.8	-0.0002
789.034	-0.0001
789.268	-0.0014
789.502	-0.0009
789.736	-0.0012
789.969	-0.0018
790.203	-0.0016
790.437	-0.0011
790.67	-0.0006
790.904	0.0003
791.137	0.0013
791.37	0.0003
791.604	0.0014
791.837	0.0026
792.07	0.0036
792.303	0.0042
792.537	0.0048
792.77	0.0043
793.003	0.003
793.236	0.0022
793.469	0.0024
793.701	0.0013
793.934	-0.0003
794.167	-0.0004
794.4	-0.0009
794.632	-0.0011
794.865	-0.0021
795.097	-0.0026
795.33	-0.0016
795.562	-0.0014
795.795	-0.0016
796.027	-0.0012
796.259	0.0008
796.491	0
796.724	0.0003
796.956	0.0007
797.188	0.0003
797.42	0.0005
797.652	0.0009
797.883	0.0011
798.115	0.0017
798.347	0.0013
798.579	0.0012
798.81	0.0001
799.042	0.0005
799.274	0.002
799.505	0.0009
799.737	0.001
799.968	0.0014
800.199	0.0012
800.431	0.0018
800.662	0.001
800.893	0.0012
801.124	0.0006
801.355	0.0008
801.586	0.0016
801.817	0.0032
802.048	0.0027
802.279	0.0023
802.51	0.0029
802.741	0.0045
802.971	0.0038
803.202	0.003
803.433	0.0023
803.663	0.0016
803.894	0.0015
804.124	0.0021
804.354	0.0022
804.585	0.0034
804.815	0.0027
805.045	0.0037
805.275	0.0025
805.506	0.0004
805.736	-0.1198
805.966	-0.0037
806.196	-0.0864
