Data from 03 0.4 mM K2Cr2O7 0.25 M BQDS 1 M H2SO4 5 min_Absorbance_0107.txt Node
Date: Wed Dec 15 02:25:12 EST 2021
User: kwabilab-user
Spectrometer: HDX00518
Trigger mode: 0
Integration Time (sec): 5.000000E-2
Scans to average: 50
Nonlinearity correction enabled: false
Boxcar width: 0
Storing dark spectrum: false
XAxis mode: Wavelengths
Number of Pixels in Spectrum: 2068
>>>>>Begin Spectral Data<<<<<
195.27	-0.1975
195.642	-0.0833
196.014	-0.1627
196.386	-0.0254
196.758	-0.0997
197.129	-0.0425
197.501	-0.0456
197.872	-0.0093
198.244	0.0026
198.615	0.025
198.986	0.0078
199.357	0.0186
199.728	0.0283
200.099	0.0064
200.47	0.0127
200.841	0.0084
201.212	0.021
201.582	0.0235
201.953	0.0116
202.323	0.0058
202.694	0.0056
203.064	-0.0077
203.434	-0.0088
203.804	-0.0081
204.174	0.0036
204.544	0.0105
204.914	-0.0195
205.284	-0.0124
205.653	-0.0197
206.023	0.0063
206.393	-0.007
206.762	-0.0071
207.131	-0.0059
207.501	0.0123
207.87	0.0067
208.239	0.0007
208.608	-0.0006
208.977	-0.007
209.346	-0.0074
209.715	0.0044
210.083	-0.0002
210.452	-0.0196
210.82	0.0187
211.189	-0.0087
211.557	0.0015
211.925	-0.024
212.294	0.0023
212.662	0.0139
213.03	-0.0023
213.398	-0.0008
213.766	-0.0097
214.133	0.0032
214.501	0.0158
214.869	-0.0004
215.236	-0.0053
215.604	-0.0013
215.971	0.0642
216.338	0.0331
216.705	0.0083
217.072	0.0072
217.439	0.0219
217.806	0.0151
218.173	0.0447
218.54	0.0388
218.907	0.0518
219.273	0.0304
219.64	0.0593
220.006	0.0677
220.373	0.0675
220.739	0.088
221.105	0.1067
221.471	0.1161
221.837	0.1445
222.203	0.1843
222.569	0.1583
222.935	0.1667
223.3	0.2085
223.666	0.2188
224.031	0.2488
224.397	0.2684
224.762	0.2932
225.127	0.316
225.493	0.3338
225.858	0.3754
226.223	0.3814
226.588	0.4042
226.952	0.4306
227.317	0.4607
227.682	0.4458
228.046	0.465
228.411	0.4961
228.775	0.5011
229.14	0.5073
229.504	0.5286
229.868	0.5298
230.232	0.5513
230.596	0.569
230.96	0.5949
231.324	0.5702
231.688	0.5834
232.052	0.6023
232.415	0.6028
232.779	0.6075
233.142	0.6009
233.505	0.6093
233.869	0.6076
234.232	0.6112
234.595	0.6164
234.958	0.6132
235.321	0.6179
235.684	0.6114
236.047	0.619
236.409	0.6056
236.772	0.6046
237.134	0.5983
237.497	0.5996
237.859	0.6066
238.222	0.6049
238.584	0.5968
238.946	0.591
239.308	0.5918
239.67	0.5921
240.032	0.589
240.393	0.5766
240.755	0.5815
241.117	0.5869
241.478	0.5721
241.84	0.5736
242.201	0.5749
242.562	0.5595
242.924	0.5649
243.285	0.5502
243.646	0.5617
244.007	0.5571
244.368	0.5577
244.728	0.5502
245.089	0.5498
245.45	0.5481
245.81	0.547
246.171	0.5431
246.531	0.5412
246.891	0.5397
247.252	0.5299
247.612	0.5426
247.972	0.5342
248.332	0.5351
248.692	0.5345
249.051	0.5293
249.411	0.5364
249.771	0.5265
250.13	0.531
250.49	0.5295
250.849	0.5253
251.208	0.5239
251.568	0.53
251.927	0.5258
252.286	0.5306
252.645	0.5243
253.004	0.5266
253.363	0.5224
253.721	0.5238
254.08	0.5244
254.439	0.5215
254.797	0.5156
255.155	0.5217
255.514	0.5207
255.872	0.5227
256.23	0.5229
256.588	0.5201
256.946	0.5172
257.304	0.5199
257.662	0.5204
258.02	0.5196
258.377	0.5131
258.735	0.5177
259.093	0.5121
259.45	0.5161
259.807	0.5153
260.165	0.509
260.522	0.513
260.879	0.5095
261.236	0.5123
261.593	0.5082
261.95	0.507
262.306	0.5057
262.663	0.4999
263.02	0.5049
263.376	0.5007
263.733	0.4971
264.089	0.4974
264.445	0.499
264.802	0.4916
265.158	0.4904
265.514	0.4901
265.87	0.4876
266.226	0.4867
266.581	0.4837
266.937	0.4801
267.293	0.4826
267.648	0.4787
268.004	0.4758
268.359	0.4743
268.714	0.4683
269.07	0.4689
269.425	0.4666
269.78	0.4657
270.135	0.459
270.49	0.4621
270.844	0.4615
271.199	0.459
271.554	0.4491
271.908	0.4504
272.263	0.4527
272.617	0.4496
272.972	0.4428
273.326	0.439
273.68	0.434
274.034	0.4325
274.388	0.4309
274.742	0.4301
275.096	0.4245
275.45	0.4196
275.803	0.4217
276.157	0.4149
276.51	0.4118
276.864	0.4105
277.217	0.4077
277.571	0.4065
277.924	0.397
278.277	0.3979
278.63	0.3901
278.983	0.3897
279.336	0.3851
279.688	0.3827
280.041	0.3782
280.394	0.3733
280.746	0.3704
281.099	0.3671
281.451	0.3646
281.803	0.359
282.156	0.3548
282.508	0.3517
282.86	0.3472
283.212	0.3469
283.564	0.3391
283.916	0.3361
284.267	0.3345
284.619	0.3319
284.971	0.3276
285.322	0.3253
285.673	0.319
286.025	0.3142
286.376	0.3141
286.727	0.3098
287.078	0.3054
287.429	0.3045
287.78	0.2979
288.131	0.2958
288.482	0.2907
288.833	0.2883
289.183	0.2862
289.534	0.2821
289.884	0.2788
290.235	0.2744
290.585	0.2721
290.935	0.2696
291.285	0.2651
291.635	0.2626
291.985	0.2593
292.335	0.2553
292.685	0.252
293.035	0.2487
293.384	0.2447
293.734	0.2426
294.083	0.2387
294.433	0.2361
294.782	0.2343
295.131	0.2298
295.48	0.227
295.829	0.2246
296.179	0.2222
296.527	0.2181
296.876	0.2149
297.225	0.2105
297.574	0.2077
297.922	0.2056
298.271	0.2024
298.619	0.1989
298.968	0.1971
299.316	0.1948
299.664	0.1917
300.012	0.1887
300.36	0.1865
300.708	0.1836
301.056	0.1818
301.404	0.1795
301.752	0.1765
302.099	0.1739
302.447	0.1713
302.794	0.1686
303.142	0.1676
303.489	0.1645
303.836	0.1633
304.183	0.1618
304.531	0.1593
304.878	0.1574
305.224	0.1553
305.571	0.155
305.918	0.153
306.265	0.1501
306.611	0.1486
306.958	0.1486
307.304	0.1467
307.651	0.1455
307.997	0.1439
308.343	0.1433
308.689	0.1424
309.035	0.1412
309.381	0.1385
309.727	0.1385
310.073	0.1388
310.419	0.1375
310.764	0.1377
311.11	0.135
311.455	0.1357
311.801	0.1345
312.146	0.1337
312.491	0.1333
312.837	0.1335
313.182	0.1317
313.527	0.1321
313.872	0.1315
314.216	0.1322
314.561	0.1319
314.906	0.1307
315.251	0.1318
315.595	0.1318
315.94	0.1313
316.284	0.1311
316.628	0.1314
316.972	0.131
317.317	0.1317
317.661	0.1318
318.005	0.1314
318.348	0.1318
318.692	0.1327
319.036	0.1327
319.38	0.1333
319.723	0.133
320.067	0.1346
320.41	0.1348
320.754	0.1356
321.097	0.1352
321.44	0.1368
321.783	0.1375
322.126	0.1381
322.469	0.1385
322.812	0.1395
323.155	0.1405
323.498	0.1408
323.84	0.1416
324.183	0.143
324.525	0.1437
324.868	0.1449
325.21	0.1455
325.552	0.1474
325.894	0.1483
326.236	0.148
326.578	0.1489
326.92	0.1508
327.262	0.1508
327.604	0.1521
327.946	0.1528
328.287	0.1542
328.629	0.1555
328.97	0.1563
329.312	0.1573
329.653	0.1588
329.994	0.1598
330.335	0.1606
330.676	0.1626
331.017	0.1632
331.358	0.165
331.699	0.1657
332.04	0.1668
332.38	0.1674
332.721	0.1688
333.061	0.1703
333.402	0.1712
333.742	0.172
334.083	0.1725
334.423	0.1733
334.763	0.1753
335.103	0.1757
335.443	0.1766
335.783	0.1783
336.123	0.1784
336.462	0.1801
336.802	0.1802
337.141	0.1813
337.481	0.1825
337.82	0.1835
338.16	0.1847
338.499	0.1858
338.838	0.1863
339.177	0.187
339.516	0.1879
339.855	0.1885
340.194	0.19
340.533	0.1897
340.872	0.1903
341.21	0.1921
341.549	0.1918
341.887	0.1929
342.226	0.1931
342.564	0.1937
342.902	0.1941
343.24	0.1945
343.578	0.1955
343.916	0.1946
344.254	0.1953
344.592	0.1954
344.93	0.1963
345.268	0.1956
345.605	0.1964
345.943	0.1962
346.28	0.196
346.618	0.1966
346.955	0.1965
347.292	0.1973
347.629	0.1977
347.966	0.1968
348.303	0.1972
348.64	0.197
348.977	0.1969
349.314	0.1972
349.65	0.1978
349.987	0.1982
350.324	0.197
350.66	0.1978
350.996	0.1966
351.333	0.1961
351.669	0.1957
352.005	0.1955
352.341	0.1946
352.677	0.1939
353.013	0.1927
353.349	0.1922
353.685	0.192
354.02	0.1905
354.356	0.1907
354.691	0.1899
355.027	0.189
355.362	0.188
355.697	0.1869
356.033	0.1867
356.368	0.1856
356.703	0.1845
357.038	0.1844
357.373	0.1832
357.707	0.183
358.042	0.1811
358.377	0.1813
358.711	0.1806
359.046	0.1788
359.38	0.1788
359.715	0.1783
360.049	0.1763
360.383	0.1756
360.717	0.1752
361.051	0.1738
361.385	0.1731
361.719	0.1709
362.053	0.1709
362.387	0.1678
362.72	0.1675
363.054	0.1665
363.387	0.165
363.721	0.1637
364.054	0.1627
364.387	0.1606
364.721	0.159
365.054	0.1589
365.387	0.1572
365.72	0.156
366.053	0.1546
366.385	0.1528
366.718	0.1521
367.051	0.1505
367.383	0.1496
367.716	0.1493
368.048	0.1481
368.381	0.1469
368.713	0.1451
369.045	0.1454
369.377	0.1433
369.709	0.1428
370.041	0.1413
370.373	0.1408
370.705	0.1397
371.037	0.1379
371.368	0.1368
371.7	0.135
372.031	0.1337
372.363	0.1329
372.694	0.1314
373.025	0.1301
373.356	0.1287
373.688	0.1268
374.019	0.1259
374.35	0.1238
374.68	0.1224
375.011	0.1209
375.342	0.1195
375.673	0.1185
376.003	0.1158
376.334	0.1155
376.664	0.1134
376.995	0.1124
377.325	0.1111
377.655	0.1093
377.985	0.1086
378.315	0.1073
378.645	0.1067
378.975	0.1052
379.305	0.1038
379.635	0.1038
379.964	0.1027
380.294	0.102
380.623	0.1006
380.953	0.0992
381.282	0.0982
381.611	0.0977
381.941	0.0967
382.27	0.0952
382.599	0.0944
382.928	0.0929
383.257	0.0924
383.585	0.0908
383.914	0.0889
384.243	0.0881
384.571	0.0871
384.9	0.0856
385.228	0.0839
385.557	0.0829
385.885	0.0817
386.213	0.0811
386.541	0.0801
386.869	0.0788
387.197	0.0767
387.525	0.0758
387.853	0.0744
388.181	0.0741
388.508	0.0728
388.836	0.0714
389.164	0.071
389.491	0.069
389.818	0.068
390.146	0.0678
390.473	0.0661
390.8	0.0661
391.127	0.0644
391.454	0.0636
391.781	0.0632
392.108	0.0631
392.435	0.0612
392.761	0.0611
393.088	0.0604
393.415	0.0596
393.741	0.0598
394.067	0.0592
394.394	0.0584
394.72	0.0574
395.046	0.0565
395.372	0.0555
395.698	0.0552
396.024	0.0536
396.35	0.0534
396.676	0.0529
397.001	0.0511
397.327	0.051
397.653	0.0503
397.978	0.0503
398.303	0.0488
398.629	0.0486
398.954	0.0479
399.279	0.0473
399.604	0.0463
399.929	0.0463
400.254	0.0456
400.579	0.0449
400.904	0.0441
401.229	0.0442
401.553	0.0436
401.878	0.0437
402.202	0.0436
402.527	0.0422
402.851	0.0424
403.175	0.0411
403.5	0.0409
403.824	0.04
404.148	0.0406
404.472	0.04
404.796	0.0402
405.119	0.0396
405.443	0.0394
405.767	0.0394
406.09	0.0395
406.414	0.0387
406.737	0.0395
407.061	0.0391
407.384	0.0377
407.707	0.0377
408.03	0.0373
408.353	0.0366
408.676	0.0375
408.999	0.0372
409.322	0.0372
409.645	0.0366
409.968	0.0365
410.29	0.0371
410.613	0.0372
410.935	0.0357
411.258	0.037
411.58	0.0355
411.902	0.0361
412.224	0.036
412.546	0.0361
412.868	0.0374
413.19	0.0358
413.512	0.0355
413.834	0.0363
414.156	0.0362
414.477	0.0353
414.799	0.0362
415.121	0.0348
415.442	0.0351
415.763	0.0354
416.085	0.036
416.406	0.0353
416.727	0.0356
417.048	0.0362
417.369	0.0351
417.69	0.0353
418.011	0.0353
418.331	0.0358
418.652	0.0361
418.973	0.0353
419.293	0.0356
419.614	0.0347
419.934	0.0358
420.254	0.0353
420.574	0.0342
420.895	0.0347
421.215	0.0347
421.535	0.035
421.855	0.0345
422.174	0.034
422.494	0.0342
422.814	0.0345
423.134	0.0348
423.453	0.0353
423.773	0.0354
424.092	0.0352
424.411	0.0347
424.731	0.0352
425.05	0.0355
425.369	0.0348
425.688	0.0349
426.007	0.0354
426.326	0.0356
426.644	0.0348
426.963	0.0349
427.282	0.035
427.6	0.0348
427.919	0.0349
428.237	0.0359
428.556	0.0354
428.874	0.0346
429.192	0.035
429.51	0.0349
429.828	0.0353
430.146	0.0353
430.464	0.035
430.782	0.035
431.1	0.0344
431.418	0.0352
431.735	0.0343
432.053	0.0344
432.37	0.0352
432.688	0.0343
433.005	0.0346
433.322	0.0354
433.639	0.035
433.957	0.0351
434.274	0.0352
434.591	0.0348
434.907	0.0347
435.224	0.0346
435.541	0.0348
435.858	0.036
436.174	0.0359
436.491	0.0352
436.807	0.0345
437.124	0.0347
437.44	0.0346
437.756	0.0345
438.072	0.0343
438.388	0.0347
438.704	0.0343
439.02	0.0344
439.336	0.0347
439.652	0.0346
439.968	0.0338
440.283	0.0341
440.599	0.0341
440.914	0.0338
441.23	0.0341
441.545	0.0344
441.86	0.0339
442.175	0.0349
442.491	0.0337
442.806	0.0338
443.121	0.0336
443.435	0.0333
443.75	0.0335
444.065	0.0333
444.38	0.0336
444.694	0.0335
445.009	0.0334
445.323	0.0334
445.638	0.0329
445.952	0.0334
446.266	0.0329
446.58	0.0321
446.894	0.033
447.208	0.0322
447.522	0.0323
447.836	0.0327
448.15	0.0324
448.464	0.0316
448.777	0.0327
449.091	0.0321
449.404	0.0314
449.718	0.0318
450.031	0.0318
450.345	0.0321
450.658	0.0315
450.971	0.0321
451.284	0.031
451.597	0.0316
451.91	0.0313
452.223	0.0316
452.535	0.0311
452.848	0.0304
453.161	0.0312
453.473	0.0312
453.786	0.031
454.098	0.0307
454.411	0.0305
454.723	0.031
455.035	0.0299
455.347	0.0297
455.659	0.0304
455.971	0.0307
456.283	0.0306
456.595	0.0304
456.907	0.0305
457.218	0.0305
457.53	0.0296
457.841	0.0293
458.153	0.0296
458.464	0.0295
458.776	0.0289
459.087	0.0287
459.398	0.0286
459.709	0.0282
460.02	0.0293
460.331	0.029
460.642	0.0287
460.953	0.0283
461.263	0.028
461.574	0.0276
461.885	0.0284
462.195	0.027
462.506	0.0272
462.816	0.0287
463.126	0.0275
463.437	0.0274
463.747	0.0266
464.057	0.0257
464.367	0.0255
464.677	0.0264
464.987	0.0259
465.296	0.0258
465.606	0.026
465.916	0.0249
466.225	0.0258
466.535	0.0256
466.844	0.0261
467.154	0.026
467.463	0.0253
467.772	0.0249
468.081	0.0249
468.39	0.0253
468.699	0.0248
469.008	0.0243
469.317	0.0245
469.626	0.0247
469.935	0.0233
470.243	0.0246
470.552	0.0236
470.86	0.0241
471.169	0.023
471.477	0.0226
471.785	0.0228
472.093	0.0225
472.402	0.0221
472.71	0.0223
473.018	0.0217
473.326	0.0227
473.633	0.0226
473.941	0.0218
474.249	0.0218
474.556	0.0216
474.864	0.0218
475.171	0.022
475.479	0.0209
475.786	0.0218
476.094	0.0209
476.401	0.0207
476.708	0.0204
477.015	0.0207
477.322	0.0195
477.629	0.0199
477.936	0.0204
478.242	0.02
478.549	0.0199
478.856	0.0197
479.162	0.0198
479.469	0.0188
479.775	0.0194
480.081	0.0184
480.388	0.0176
480.694	0.0188
481	0.0174
481.306	0.0182
481.612	0.0182
481.918	0.0188
482.224	0.0188
482.53	0.0182
482.835	0.0176
483.141	0.0185
483.446	0.0179
483.752	0.0173
484.057	0.0162
484.363	0.0165
484.668	0.0168
484.973	0.0162
485.278	0.0155
485.583	0.0155
485.888	0.0161
486.193	0.0142
486.498	0.0155
486.803	0.0153
487.107	0.0142
487.412	0.0136
487.717	0.0146
488.021	0.0156
488.325	0.0143
488.63	0.0145
488.934	0.0147
489.238	0.014
489.542	0.0145
489.846	0.0136
490.15	0.0135
490.454	0.0143
490.758	0.0132
491.062	0.0136
491.366	0.0127
491.669	0.0127
491.973	0.0135
492.276	0.0126
492.58	0.013
492.883	0.0126
493.186	0.0119
493.489	0.0126
493.792	0.0118
494.096	0.0108
494.399	0.0115
494.701	0.0116
495.004	0.0116
495.307	0.0117
495.61	0.0118
495.912	0.0113
496.215	0.011
496.517	0.0119
496.82	0.0114
497.122	0.0104
497.424	0.0108
497.727	0.0104
498.029	0.0097
498.331	0.0106
498.633	0.0098
498.935	0.0104
499.237	0.0111
499.538	0.0098
499.84	0.0097
500.142	0.0092
500.443	0.0096
500.745	0.0097
501.046	0.009
501.348	0.0086
501.649	0.0091
501.95	0.009
502.251	0.0091
502.552	0.0084
502.853	0.0095
503.154	0.0087
503.455	0.0088
503.756	0.0085
504.057	0.0081
504.357	0.008
504.658	0.0073
504.958	0.0079
505.259	0.0078
505.559	0.0079
505.859	0.007
506.16	0.007
506.46	0.0079
506.76	0.0072
507.06	0.0059
507.36	0.0073
507.66	0.0077
507.96	0.0083
508.259	0.0061
508.559	0.0063
508.859	0.0069
509.158	0.0066
509.457	0.0059
509.757	0.0071
510.056	0.0057
510.355	0.0057
510.655	0.0051
510.954	0.0053
511.253	0.0057
511.552	0.0065
511.851	0.0059
512.149	0.006
512.448	0.0045
512.747	0.0053
513.045	0.0054
513.344	0.0059
513.642	0.0056
513.941	0.0054
514.239	0.0053
514.537	0.005
514.836	0.0048
515.134	0.0051
515.432	0.0046
515.73	0.0047
516.028	0.005
516.326	0.0048
516.623	0.0036
516.921	0.0042
517.219	0.0061
517.516	0.0047
517.814	0.0052
518.111	0.0042
518.409	0.0053
518.706	0.0048
519.003	0.0034
519.3	0.0038
519.597	0.0048
519.894	0.0041
520.191	0.0049
520.488	0.0051
520.785	0.0031
521.082	0.0046
521.378	0.0044
521.675	0.0036
521.971	0.0037
522.268	0.0045
522.564	0.0045
522.861	0.0055
523.157	0.0038
523.453	0.0051
523.749	0.004
524.045	0.0046
524.341	0.0035
524.637	0.0031
524.933	0.005
525.229	0.0045
525.524	0.003
525.82	0.0041
526.115	0.0036
526.411	0.0036
526.706	0.0031
527.002	0.0035
527.297	0.0035
527.592	0.0033
527.887	0.0024
528.182	0.003
528.477	0.0034
528.772	0.0026
529.067	0.0037
529.362	0.0029
529.657	0.0034
529.951	0.003
530.246	0.0026
530.54	0.0027
530.835	0.0024
531.129	0.0026
531.423	0.0028
531.718	0.0035
532.012	0.0025
532.306	0.0037
532.6	0.0022
532.894	0.0032
533.188	0.0016
533.482	0.0034
533.775	0.002
534.069	0.0034
534.363	0.0028
534.656	0.0031
534.95	0.0025
535.243	0.0023
535.536	0.0022
535.83	0.0022
536.123	0.0016
536.416	0.0022
536.709	0.0029
537.002	0.004
537.295	0.0029
537.588	0.003
537.881	0.0022
538.173	0.0028
538.466	0.0028
538.759	0.0029
539.051	0.0025
539.344	0.0034
539.636	0.0029
539.928	0.004
540.22	0.0027
540.513	0.0027
540.805	0.0044
541.097	0.0028
541.389	0.003
541.681	0.0037
541.972	0.0029
542.264	0.0031
542.556	0.0034
542.847	0.0025
543.139	0.0035
543.431	0.0029
543.722	0.0028
544.013	0.003
544.305	0.0028
544.596	0.003
544.887	0.0032
545.178	0.0039
545.469	0.0035
545.76	0.0035
546.051	0.004
546.342	0.0033
546.632	0.0033
546.923	0.0028
547.214	0.0024
547.504	0.0028
547.795	0.0027
548.085	0.0025
548.375	0.0037
548.666	0.0028
548.956	0.0025
549.246	0.0027
549.536	0.0036
549.826	0.004
550.116	0.0041
550.406	0.0026
550.695	0.0033
550.985	0.0026
551.275	0.0038
551.564	0.0042
551.854	0.0038
552.143	0.0042
552.433	0.0034
552.722	0.004
553.011	0.0045
553.3	0.0033
553.589	0.0039
553.879	0.0036
554.167	0.0039
554.456	0.0027
554.745	0.0035
555.034	0.0037
555.323	0.0036
555.611	0.0035
555.9	0.0037
556.188	0.0034
556.477	0.0017
556.765	0.0043
557.053	0.0037
557.342	0.0026
557.63	0.0035
557.918	0.0033
558.206	0.0035
558.494	0.0037
558.782	0.0036
559.069	0.0046
559.357	0.0029
559.645	0.0036
559.932	0.003
560.22	0.0035
560.507	0.0015
560.795	0.0029
561.082	0.0017
561.37	0.0028
561.657	0.0021
561.944	0.0029
562.231	0.0026
562.518	0.0034
562.805	0.0035
563.092	0.0033
563.379	0.0029
563.665	0.0029
563.952	0.0045
564.239	0.0042
564.525	0.0039
564.811	0.0042
565.098	0.003
565.384	0.0032
565.67	0.0039
565.957	0.003
566.243	0.0038
566.529	0.0025
566.815	0.004
567.101	0.0029
567.387	0.0031
567.672	0.0027
567.958	0.0018
568.244	0.0019
568.529	0.0025
568.815	0.0021
569.1	0.0026
569.386	0.0032
569.671	0.0023
569.956	0.0031
570.242	0.0023
570.527	0.0019
570.812	0.0024
571.097	0.0019
571.382	0.002
571.666	0.0014
571.951	0.0028
572.236	0.002
572.521	0.0031
572.805	0.0034
573.09	0.0033
573.374	0.0015
573.659	0.002
573.943	0.0026
574.227	0.003
574.511	0.003
574.795	0.003
575.079	0.0032
575.363	0.002
575.647	0.0024
575.931	0.0029
576.215	0.003
576.499	0.0025
576.782	0.0023
577.066	0.0025
577.349	0.0029
577.633	0.0037
577.916	0.0025
578.2	0.0027
578.483	0.0027
578.766	0.0037
579.049	0.0027
579.332	0.0027
579.615	0.0022
579.898	0.0018
580.181	0.0027
580.464	0.0029
580.746	0.0026
581.029	0.0031
581.312	0.0018
581.594	0.0015
581.877	0.0018
582.159	0.003
582.441	0.002
582.724	0.0025
583.006	0.0035
583.288	0.0026
583.57	0.0023
583.852	0.0031
584.134	0.0035
584.416	0.0031
584.697	0.0031
584.979	0.0024
585.261	0.002
585.542	0.0025
585.824	0.0029
586.105	0.003
586.387	0.0031
586.668	0.0028
586.949	0.0036
587.231	0.0028
587.512	0.0028
587.793	0.0029
588.074	0.0026
588.355	0.0027
588.636	0.0023
588.916	0.0025
589.197	0.0017
589.478	0.0027
589.758	0.0022
590.039	0.0021
590.319	0.0014
590.6	0.0025
590.88	0.0018
591.16	0.0026
591.441	0.0028
591.721	0.0021
592.001	0.0014
592.281	0.0022
592.561	0.0027
592.841	0.0027
593.12	0.002
593.4	0.0026
593.68	0.0027
593.959	0.0025
594.239	0.0028
594.518	0.003
594.798	0.0033
595.077	0.0022
595.356	0.0021
595.636	0.0028
595.915	0.0018
596.194	0.0025
596.473	0.0032
596.752	0.0032
597.031	0.0025
597.31	0.0029
597.588	0.0012
597.867	0.0015
598.146	0.0012
598.424	0.0013
598.703	0.0022
598.981	0.0017
599.259	0.0015
599.538	0.0024
599.816	0.0027
600.094	0.0028
600.372	0.0023
600.65	0.0028
600.928	0.0023
601.206	0.0027
601.484	0.0029
601.762	0.0031
602.04	0.003
602.317	0.0025
602.595	0.004
602.872	0.0025
603.15	0.0039
603.427	0.0015
603.704	0.0015
603.982	0.0008
604.259	0.0015
604.536	0.0017
604.813	0.0022
605.09	0.0015
605.367	0.0018
605.644	0.0014
605.921	0.0014
606.197	0.001
606.474	0.0021
606.751	0.0012
607.027	0.0024
607.304	0.0018
607.58	0.0013
607.856	0.0033
608.133	0.0033
608.409	0.0037
608.685	0.0028
608.961	0.0032
609.237	0.0032
609.513	0.0038
609.789	0.0026
610.065	0.0022
610.341	0.0012
610.616	0.002
610.892	0.0033
611.167	0.0026
611.443	0.0037
611.718	0.0025
611.994	0.003
612.269	0.0026
612.544	0.0025
612.819	0.0014
613.095	0.0022
613.37	0.0017
613.645	0.0015
613.919	0.0021
614.194	0.0023
614.469	0.0022
614.744	0.0019
615.019	0.0016
615.293	0.0015
615.568	0.0014
615.842	0.0014
616.116	0.001
616.391	0.0008
616.665	0.0006
616.939	0.0005
617.213	0.001
617.488	0.0009
617.762	0.0014
618.035	0.0031
618.309	0.0015
618.583	0.002
618.857	0.0021
619.131	0.0021
619.404	0.002
619.678	0.0027
619.951	0.0022
620.225	0.0011
620.498	0.0011
620.771	0.0018
621.045	0.0018
621.318	0.0025
621.591	0.0026
621.864	0.0022
622.137	0.0012
622.41	0.0009
622.683	0.0012
622.956	0.0004
623.228	0.002
623.501	0.0025
623.774	0.0018
624.046	0.0018
624.319	0.0019
624.591	0.0012
624.863	0.0012
625.136	0.0019
625.408	0.0034
625.68	0.0023
625.952	0.0024
626.224	0.0032
626.496	0.0033
626.768	0.0022
627.04	0.003
627.311	0.0024
627.583	0.0025
627.855	0.0031
628.126	0.001
628.398	0.0013
628.669	0.002
628.941	0.0006
629.212	-0
629.483	0.0015
629.755	0.0006
630.026	0.0018
630.297	0.0015
630.568	0.0015
630.839	0.0023
631.11	0.0022
631.38	0.0027
631.651	0.0018
631.922	0.0018
632.192	0.0015
632.463	0.0014
632.733	0.0015
633.004	0.0008
633.274	0.0006
633.545	0.0009
633.815	0.0017
634.085	0.0019
634.355	0.0012
634.625	0.0019
634.895	0.002
635.165	0.0011
635.435	0.0025
635.705	0.0018
635.974	0.0017
636.244	0.001
636.514	0.0006
636.783	0.0005
637.053	0.0016
637.322	0.001
637.591	0.0012
637.861	-0.0003
638.13	0.0005
638.399	0.0025
638.668	0.0014
638.937	0.0018
639.206	0.0018
639.475	0.003
639.744	0.0022
640.013	0.0014
640.281	0.0018
640.55	0.0014
640.819	0.0021
641.087	0.0007
641.356	0.002
641.624	0.0018
641.892	0.0019
642.161	0.0009
642.429	0.0011
642.697	0.0013
642.965	0.0013
643.233	0.0001
643.501	0.0006
643.769	0.0009
644.037	0
644.305	0.0007
644.572	0.0008
644.84	0.0006
645.108	0.0007
645.375	0.0011
645.643	0.0019
645.91	0.0009
646.177	0.001
646.445	0.0011
646.712	0.002
646.979	0.0016
647.246	0.0022
647.513	0.0024
647.78	0.0021
648.047	-0.0002
648.314	0.0001
648.58	-0.0009
648.847	-0.0014
649.114	-0.0012
649.38	-0.0017
649.647	-0.0014
649.913	-0.0002
650.18	0.0008
650.446	0.0007
650.712	0.0016
650.978	0.0019
651.245	0.0022
651.511	0.003
651.777	0.003
652.043	0.0025
652.309	0.0027
652.574	0.0017
652.84	0.0025
653.106	0.0028
653.371	0.0033
653.637	0.0024
653.903	0.0024
654.168	0.002
654.433	0.0016
654.699	0.002
654.964	-0.0006
655.229	0.0006
655.494	0.0008
655.759	-0.0003
656.024	0.0001
656.289	-0
656.554	0.0004
656.819	0.0014
657.084	0.0026
657.349	0.0026
657.613	0.0023
657.878	0.0003
658.142	0.0006
658.407	0.0007
658.671	0.0017
658.936	0.0011
659.2	0.0017
659.464	0.0013
659.728	0.0009
659.992	-0.0006
660.256	-0.0014
660.52	-0.0012
660.784	0.0009
661.048	0.0007
661.312	0.0013
661.575	0.001
661.839	0.0015
662.103	0.0006
662.366	0.0004
662.63	0.0005
662.893	0.0005
663.156	0.0019
663.42	0.0027
663.683	0.0012
663.946	0.0023
664.209	0.0034
664.472	0.0026
664.735	0.0025
664.998	0.0031
665.261	0.0029
665.524	0.0026
665.786	0.0029
666.049	0.0013
666.312	0.0016
666.574	0.002
666.837	0.0029
667.099	0.002
667.361	0.0039
667.624	0.0027
667.886	0.0024
668.148	0.0028
668.41	0.0024
668.672	0.002
668.934	0.0027
669.196	0.0013
669.458	0.0002
669.72	0.0002
669.982	0.0005
670.243	-0
670.505	0.0009
670.766	0.0016
671.028	0.0011
671.289	0.0013
671.551	0.0018
671.812	0.0009
672.073	0.0013
672.334	0.0016
672.596	0.0011
672.857	0.0015
673.118	0.002
673.379	0.0022
673.639	0.0022
673.9	0.0022
674.161	0.0017
674.422	0.0021
674.682	0.0009
674.943	0.0009
675.203	0.0007
675.464	0.0014
675.724	0.001
675.985	0.0011
676.245	0.0006
676.505	-0
676.765	-0.0005
677.025	0.001
677.285	0.0005
677.545	-0.0003
677.805	0.0003
678.065	0.0008
678.325	0.0017
678.585	0.0026
678.844	0.0029
679.104	0.0026
679.363	0.0037
679.623	0.0042
679.882	0.0033
680.142	0.0038
680.401	0.004
680.66	0.0038
680.919	0.0027
681.178	0.0035
681.437	0.003
681.696	0.0022
681.955	0.0051
682.214	0.0038
682.473	0.004
682.732	0.0029
682.99	0.0036
683.249	0.0038
683.508	0.0036
683.766	0.004
684.024	0.0028
684.283	0.0017
684.541	0.0016
684.799	0.0014
685.058	-0.0002
685.316	-0.001
685.574	-0.0014
685.832	-0.0001
686.09	-0.0007
686.348	-0.0016
686.606	-0.0008
686.863	-0.0012
687.121	-0.0013
687.379	-0.0018
687.636	-0.0021
687.894	-0.0021
688.151	-0.0026
688.409	-0.0019
688.666	-0.0012
688.923	-0.0009
689.181	-0.0003
689.438	-0.0012
689.695	-0.0005
689.952	-0.0007
690.209	-0
690.466	-0.0008
690.723	-0.0004
690.979	-0.0011
691.236	-0.0011
691.493	-0.0027
691.75	-0.002
692.006	-0.0015
692.263	-0.0026
692.519	-0.001
692.775	-0.0027
693.032	-0.0021
693.288	-0.0027
693.544	-0.0021
693.8	-0.0006
694.056	-0.0017
694.313	-0.0016
694.568	-0.0013
694.824	-0.0012
695.08	-0.0013
695.336	-0.0006
695.592	-0.0004
695.847	0.0012
696.103	0.0026
696.359	0.0028
696.614	0.0024
696.869	0.0004
697.125	-0.0004
697.38	-0.0008
697.635	-0.0001
697.891	0.0009
698.146	-0.0001
698.401	0.0001
698.656	0.0002
698.911	0.0011
699.166	0.0008
699.42	0.0018
699.675	0.0023
699.93	0.0026
700.185	0.0028
700.439	0.0022
700.694	0.0012
700.948	0.001
701.203	0.0014
701.457	0.0009
701.711	0.0007
701.965	-0.0003
702.22	-0.0003
702.474	-0.0001
702.728	-0.0002
702.982	0.0008
703.236	0.0003
703.49	0.0001
703.743	-0.0006
703.997	-0.0006
704.251	0
704.504	0.0009
704.758	0.0007
705.012	0.0017
705.265	0.0023
705.518	0.0007
705.772	0.0019
706.025	0.0024
706.278	0.0014
706.531	0.0003
706.785	-0.0007
707.038	-0.0012
707.291	-0.001
707.543	-0.0014
707.796	-0.0004
708.049	-0.0004
708.302	-0.0009
708.555	-0.0006
708.807	-0.0002
709.06	0.0003
709.312	0.0011
709.565	0.0017
709.817	0.0027
710.069	0.0022
710.322	0.0026
710.574	0.0022
710.826	0.0022
711.078	0.0016
711.33	0.0017
711.582	0.0016
711.834	0.0007
712.086	0.0014
712.338	0.0016
712.59	0.0008
712.841	-0.0001
713.093	0.0001
713.344	0.0004
713.596	-0.0004
713.847	-0.0013
714.099	-0.0014
714.35	-0.0006
714.601	-0.0015
714.853	-0.0018
715.104	-0.0014
715.355	-0.0014
715.606	-0
715.857	0.0002
716.108	0.0011
716.359	0.0009
716.609	0.0008
716.86	0.0012
717.111	0.0008
717.361	0.0005
717.612	0.0007
717.863	0.0014
718.113	0.0021
718.363	0.001
718.614	0.0016
718.864	0.0015
719.114	0.0009
719.364	0.0002
719.614	-0.0001
719.865	-0.0001
720.114	0.0003
720.364	0.001
720.614	-0.001
720.864	-0.0003
721.114	-0.0017
721.364	-0.0019
721.613	-0.0016
721.863	-0.002
722.112	-0.0014
722.362	-0.0007
722.611	-0.0001
722.86	0.0004
723.11	0.0013
723.359	0.0012
723.608	0.0013
723.857	0.0033
724.106	0.002
724.355	0.0018
724.604	0.0014
724.853	0.0008
725.102	-0.0017
725.351	-0.002
725.599	-0.0028
725.848	-0.0022
726.097	-0.0018
726.345	-0.0013
726.594	-0.0011
726.842	-0.0008
727.09	-0.0013
727.339	-0.0013
727.587	-0.0016
727.835	-0.0026
728.083	-0.0024
728.331	-0.0024
728.579	-0.0013
728.827	-0.0026
729.075	-0.0033
729.323	-0.0029
729.571	-0.0035
729.818	-0.0036
730.066	-0.0025
730.314	-0.0017
730.561	-0.0025
730.809	-0.0034
731.056	-0.0028
731.303	-0.0026
731.551	-0.0027
731.798	-0.002
732.045	-0.0011
732.292	-0.002
732.539	-0.0018
732.786	-0.0023
733.033	-0.0023
733.28	-0.0019
733.527	-0.0021
733.774	-0.0027
734.021	-0.003
734.267	-0.0021
734.514	-0.0022
734.76	-0.0021
735.007	-0.002
735.253	-0.0009
735.5	0.0011
735.746	0.0016
735.992	0.0007
736.238	0.0013
736.485	0.0008
736.731	0.0015
736.977	0.0009
737.223	-0.0008
737.469	-0.0006
737.715	0.0002
737.96	0.0008
738.206	0.0005
738.452	0
738.697	0.0001
738.943	-0.0009
739.189	-0.0003
739.434	-0.0011
739.679	0
739.925	0.0015
740.17	0.0023
740.415	0.0011
740.66	0.0021
740.906	0.0013
741.151	0.0012
741.396	0.0008
741.641	-0.0005
741.886	0.0005
742.13	-0.0001
742.375	0.001
742.62	-0.0005
742.865	-0.0005
743.109	0.0001
743.354	-0.0012
743.598	-0.001
743.843	-0.0027
744.087	-0.0033
744.331	-0.0028
744.576	-0.0023
744.82	-0.0014
745.064	-0.0009
745.308	-0.0007
745.552	-0.0003
745.796	-0.0012
746.04	-0.0011
746.284	-0.0017
746.528	-0.0011
746.771	-0.0007
747.015	-0.0012
747.259	-0.0023
747.502	-0.0024
747.746	-0.0014
747.989	-0.0011
748.233	0.0001
748.476	-0.0001
748.719	0.0001
748.963	0.0002
749.206	-0.0004
749.449	-0.0002
749.692	0.0001
749.935	-0.0003
750.178	-0.0001
750.421	-0.0007
750.664	0.0001
750.906	-0.0003
751.149	-0.0002
751.392	0.0004
751.635	-0.0002
751.877	-0.0006
752.12	0
752.362	0.0012
752.604	0.0005
752.847	0.0001
753.089	0.0003
753.331	-0.0001
753.573	0.0001
753.816	0.0006
754.058	0.0003
754.3	0.0005
754.542	0.0013
754.783	0.0016
755.025	0.0011
755.267	0.0013
755.509	0.0012
755.75	-0
755.992	0.0005
756.234	0.0007
756.475	0.0011
756.716	0.0002
756.958	-0.0002
757.199	0.0002
757.44	0.0014
757.682	-0.0006
757.923	0.0012
758.164	0.0014
758.405	0.0002
758.646	0.0011
758.887	-0.0002
759.128	0.0003
759.369	-0.0006
759.609	-0.0004
759.85	-0.0005
760.091	-0.0003
760.331	0.0003
760.572	0.0009
760.812	-0.0004
761.053	0
761.293	0.001
761.533	0.0018
761.774	0.0017
762.014	0.0016
762.254	0.0013
762.494	0.0015
762.734	0.0005
762.974	0.0015
763.214	0.0006
763.454	0.0012
763.694	0.0008
763.933	0.0021
764.173	0.0039
764.413	0.0033
764.652	0.0011
764.892	0.0008
765.131	-0
765.371	-0.0004
765.61	-0.0011
765.849	-0.0023
766.089	-0.0021
766.328	-0.0016
766.567	-0.0029
766.806	-0.003
767.045	-0.0038
767.284	-0.0024
767.523	-0.0027
767.762	-0.0023
768.001	-0.002
768.239	-0.0027
768.478	-0.0028
768.717	-0.0031
768.955	-0.0027
769.194	-0.0025
769.432	-0.0016
769.671	-0.0016
769.909	-0.001
770.148	-0.0014
770.386	-0.0021
770.624	-0.0015
770.862	-0.0018
771.1	-0.002
771.338	-0.0019
771.576	-0.0012
771.814	-0.0003
772.052	-0.0001
772.29	0.0012
772.528	-0
772.765	-0.0017
773.003	-0.0005
773.24	-0
773.478	-0.0002
773.716	0.0015
773.953	0.0011
774.19	0.0012
774.428	0.002
774.665	0.0024
774.902	0.003
775.139	0.0032
775.376	0.0022
775.613	0.0019
775.85	0.0019
776.087	0.0015
776.324	0.0002
776.561	-0.0008
776.798	-0.0007
777.034	0.0001
777.271	-0.0008
777.508	0
777.744	0.0016
777.981	0.0012
778.217	0.0005
778.454	-0.0005
778.69	-0.0001
778.926	-0.0002
779.162	-0.0002
779.399	0.0004
779.635	0.0001
779.871	-0.0006
780.107	-0.0008
780.343	-0.0016
780.579	-0.0015
780.814	-0.001
781.05	-0.0004
781.286	-0.0012
781.522	-0.0016
781.757	-0.002
781.993	-0.0007
782.228	-0.0014
782.464	-0.0011
782.699	-0.0008
782.934	-0.0011
783.17	-0.0009
783.405	0.0003
783.64	-0.001
783.875	-0.0008
784.11	-0.0017
784.345	-0.0011
784.58	-0.0007
784.815	-0.0012
785.05	-0.0006
785.285	-0.0011
785.52	-0.0006
785.754	-0.0015
785.989	-0.0003
786.223	0.0005
786.458	0.0006
786.692	0.0021
786.927	0.0039
787.161	0.0039
787.396	0.0048
787.63	0.0031
787.864	0.0017
788.098	-0
788.332	-0.0002
788.566	-0.0009
788.8	-0.0009
789.034	0.0001
789.268	-0.0009
789.502	-0.0007
789.736	-0.0008
789.969	-0.0003
790.203	-0.0004
790.437	0.0006
790.67	0.0006
790.904	0.0025
791.137	0.0027
791.37	0.0028
791.604	0.0026
791.837	0.0039
792.07	0.0033
792.303	0.0038
792.537	0.0046
792.77	0.004
793.003	0.0031
793.236	0.0026
793.469	0.0026
793.701	0.0016
793.934	0.0014
794.167	0.001
794.4	-0.0008
794.632	-0.0007
794.865	-0.0009
795.097	-0.0015
795.33	-0.001
795.562	-0.0012
795.795	-0.0017
796.027	-0.0006
796.259	-0
796.491	-0.0004
796.724	0.0011
796.956	0.0009
797.188	0.0014
797.42	0.0006
797.652	0.0017
797.883	0.0016
798.115	0.0021
798.347	0.0017
798.579	0.0015
798.81	0.0011
799.042	0.0019
799.274	0.0031
799.505	0.0028
799.737	0.0019
799.968	0.0014
800.199	0.0016
800.431	0.0028
800.662	0.0012
800.893	0.001
801.124	0.0014
801.355	0.0021
801.586	0.0023
801.817	0.0043
802.048	0.0042
802.279	0.0038
802.51	0.0041
802.741	0.0046
802.971	0.0045
803.202	0.0033
803.433	0.0026
803.663	0.0017
803.894	0.0024
804.124	0.0025
804.354	0.0036
804.585	0.0044
804.815	0.0041
805.045	0.0043
805.275	0.0039
805.506	0.0397
805.736	-0.1936
805.966	-0.276
806.196	-0.2368
