Data from 03 0.4 mM K2Cr2O7 0.25 M BQDS 1 M H2SO4 5 min_Absorbance_0049.txt Node
Date: Tue Dec 14 21:35:12 EST 2021
User: kwabilab-user
Spectrometer: HDX00518
Trigger mode: 0
Integration Time (sec): 5.000000E-2
Scans to average: 50
Nonlinearity correction enabled: false
Boxcar width: 0
Storing dark spectrum: false
XAxis mode: Wavelengths
Number of Pixels in Spectrum: 2068
>>>>>Begin Spectral Data<<<<<
195.27	-0.1035
195.642	0.14
196.014	-0.15
196.386	-0
196.758	-0.1004
197.129	-0.0065
197.501	-0.0369
197.872	0.009
198.244	0.0034
198.615	0.0406
198.986	0.0224
199.357	0.0273
199.728	0.0449
200.099	0.0233
200.47	0.0331
200.841	0.0314
201.212	0.0186
201.582	0.045
201.953	0.0206
202.323	0.0319
202.694	0.0211
203.064	0.0133
203.434	0.009
203.804	0.0238
204.174	0.0196
204.544	0.0064
204.914	0.0156
205.284	0.0133
205.653	0.012
206.023	0.0217
206.393	0.0429
206.762	0.0204
207.131	0.037
207.501	0.0339
207.87	0.0227
208.239	0.0129
208.608	0.0282
208.977	0.0174
209.346	0.0121
209.715	0.0447
210.083	0.0222
210.452	-0.0001
210.82	0.0276
211.189	0.0108
211.557	0.0224
211.925	0.0183
212.294	0.0063
212.662	0.0458
213.03	0.019
213.398	0.0223
213.766	0.0136
214.133	0.035
214.501	0.0122
214.869	0.0116
215.236	0.0188
215.604	0.0288
215.971	0.0479
216.338	0.0394
216.705	0.0235
217.072	0.032
217.439	0.0485
217.806	0.0324
218.173	0.0519
218.54	0.052
218.907	0.0498
219.273	0.0575
219.64	0.0713
220.006	0.076
220.373	0.0993
220.739	0.1107
221.105	0.1301
221.471	0.1316
221.837	0.1756
222.203	0.1881
222.569	0.1876
222.935	0.1979
223.3	0.236
223.666	0.2475
224.031	0.2854
224.397	0.291
224.762	0.3166
225.127	0.3573
225.493	0.3645
225.858	0.4058
226.223	0.4238
226.588	0.4446
226.952	0.4379
227.317	0.4895
227.682	0.4929
228.046	0.4849
228.411	0.5396
228.775	0.5377
229.14	0.5594
229.504	0.5757
229.868	0.5782
230.232	0.5912
230.596	0.5945
230.96	0.6129
231.324	0.6021
231.688	0.6167
232.052	0.6318
232.415	0.6348
232.779	0.6391
233.142	0.6475
233.505	0.6558
233.869	0.6534
234.232	0.6496
234.595	0.6307
234.958	0.6513
235.321	0.6627
235.684	0.6495
236.047	0.6516
236.409	0.6398
236.772	0.6389
237.134	0.6413
237.497	0.6484
237.859	0.6528
238.222	0.6485
238.584	0.6298
238.946	0.6317
239.308	0.6382
239.67	0.6351
240.032	0.6342
240.393	0.6151
240.755	0.6195
241.117	0.6244
241.478	0.6238
241.84	0.614
242.201	0.6056
242.562	0.6037
242.924	0.6031
243.285	0.5945
243.646	0.6071
244.007	0.6004
244.368	0.6049
244.728	0.602
245.089	0.6025
245.45	0.5929
245.81	0.5946
246.171	0.5884
246.531	0.5897
246.891	0.5854
247.252	0.5879
247.612	0.5903
247.972	0.5858
248.332	0.5861
248.692	0.5854
249.051	0.5817
249.411	0.5857
249.771	0.585
250.13	0.5818
250.49	0.581
250.849	0.5827
251.208	0.5823
251.568	0.577
251.927	0.5783
252.286	0.5778
252.645	0.5749
253.004	0.5743
253.363	0.5735
253.721	0.5757
254.08	0.5805
254.439	0.5745
254.797	0.5749
255.155	0.5705
255.514	0.5689
255.872	0.5749
256.23	0.5739
256.588	0.5789
256.946	0.5744
257.304	0.5728
257.662	0.5736
258.02	0.5694
258.377	0.565
258.735	0.5678
259.093	0.5654
259.45	0.5666
259.807	0.5689
260.165	0.5647
260.522	0.5642
260.879	0.5606
261.236	0.5634
261.593	0.5654
261.95	0.5584
262.306	0.5588
262.663	0.5579
263.02	0.5581
263.376	0.5536
263.733	0.5477
264.089	0.5503
264.445	0.5532
264.802	0.5482
265.158	0.5481
265.514	0.5511
265.87	0.5438
266.226	0.5404
266.581	0.5433
266.937	0.5403
267.293	0.5333
267.648	0.5376
268.004	0.5306
268.359	0.5309
268.714	0.5214
269.07	0.527
269.425	0.5235
269.78	0.5158
270.135	0.517
270.49	0.5123
270.844	0.511
271.199	0.5139
271.554	0.5071
271.908	0.5009
272.263	0.5004
272.617	0.4971
272.972	0.4941
273.326	0.4919
273.68	0.4848
274.034	0.4819
274.388	0.484
274.742	0.4824
275.096	0.475
275.45	0.4709
275.803	0.4677
276.157	0.4662
276.51	0.4598
276.864	0.4587
277.217	0.4558
277.571	0.4512
277.924	0.4436
278.277	0.445
278.63	0.4387
278.983	0.4316
279.336	0.4287
279.688	0.4259
280.041	0.4221
280.394	0.4158
280.746	0.4157
281.099	0.4102
281.451	0.4061
281.803	0.4033
282.156	0.3972
282.508	0.392
282.86	0.3891
283.212	0.3885
283.564	0.3831
283.916	0.3755
284.267	0.3716
284.619	0.3698
284.971	0.3668
285.322	0.3638
285.673	0.3599
286.025	0.3545
286.376	0.353
286.727	0.3469
287.078	0.3442
287.429	0.3404
287.78	0.3363
288.131	0.3328
288.482	0.3282
288.833	0.3236
289.183	0.3201
289.534	0.316
289.884	0.3134
290.235	0.3113
290.585	0.3065
290.935	0.3008
291.285	0.2986
291.635	0.2961
291.985	0.2926
292.335	0.2876
292.685	0.286
293.035	0.2793
293.384	0.2773
293.734	0.2736
294.083	0.2693
294.433	0.2663
294.782	0.2629
295.131	0.2592
295.48	0.2567
295.829	0.2529
296.179	0.2514
296.527	0.2458
296.876	0.244
297.225	0.238
297.574	0.2364
297.922	0.2339
298.271	0.2301
298.619	0.2259
298.968	0.2245
299.316	0.2213
299.664	0.2181
300.012	0.2163
300.36	0.2122
300.708	0.2102
301.056	0.2073
301.404	0.2035
301.752	0.2015
302.099	0.1982
302.447	0.1967
302.794	0.1935
303.142	0.1913
303.489	0.1887
303.836	0.1869
304.183	0.1863
304.531	0.1839
304.878	0.1798
305.224	0.1785
305.571	0.1781
305.918	0.1757
306.265	0.173
306.611	0.1709
306.958	0.1707
307.304	0.1693
307.651	0.1669
307.997	0.1659
308.343	0.1649
308.689	0.1635
309.035	0.163
309.381	0.1601
309.727	0.1596
310.073	0.1595
310.419	0.1585
310.764	0.1576
311.11	0.1564
311.455	0.1557
311.801	0.1549
312.146	0.1542
312.491	0.154
312.837	0.1539
313.182	0.153
313.527	0.1517
313.872	0.1519
314.216	0.1518
314.561	0.151
314.906	0.15
315.251	0.1516
315.595	0.1516
315.94	0.1504
316.284	0.1514
316.628	0.1512
316.972	0.1508
317.317	0.1516
317.661	0.152
318.005	0.1518
318.348	0.1519
318.692	0.1521
319.036	0.1518
319.38	0.153
319.723	0.1531
320.067	0.1541
320.41	0.1546
320.754	0.1551
321.097	0.155
321.44	0.1559
321.783	0.1566
322.126	0.1579
322.469	0.1577
322.812	0.1589
323.155	0.1597
323.498	0.1611
323.84	0.1612
324.183	0.1628
324.525	0.1633
324.868	0.1653
325.21	0.1651
325.552	0.1665
325.894	0.1682
326.236	0.1677
326.578	0.1691
326.92	0.1705
327.262	0.1709
327.604	0.172
327.946	0.1732
328.287	0.1743
328.629	0.1752
328.97	0.1764
329.312	0.1783
329.653	0.1789
329.994	0.1801
330.335	0.1813
330.676	0.1834
331.017	0.1834
331.358	0.1849
331.699	0.1859
332.04	0.1876
332.38	0.1884
332.721	0.1894
333.061	0.1905
333.402	0.1929
333.742	0.1934
334.083	0.1946
334.423	0.1952
334.763	0.197
335.103	0.1966
335.443	0.1982
335.783	0.2001
336.123	0.2001
336.462	0.2016
336.802	0.2026
337.141	0.2032
337.481	0.2045
337.82	0.2057
338.16	0.2066
338.499	0.2069
338.838	0.208
339.177	0.2097
339.516	0.21
339.855	0.2109
340.194	0.2121
340.533	0.2122
340.872	0.2126
341.21	0.2147
341.549	0.215
341.887	0.2149
342.226	0.2147
342.564	0.2164
342.902	0.2162
343.24	0.2162
343.578	0.2169
343.916	0.2171
344.254	0.2184
344.592	0.2185
344.93	0.2183
345.268	0.2183
345.605	0.2191
345.943	0.2188
346.28	0.2184
346.618	0.2184
346.955	0.2181
347.292	0.2195
347.629	0.2194
347.966	0.2193
348.303	0.22
348.64	0.2197
348.977	0.2191
349.314	0.2198
349.65	0.2194
349.987	0.2193
350.324	0.2181
350.66	0.2194
350.996	0.2185
351.333	0.2181
351.669	0.2175
352.005	0.2176
352.341	0.2162
352.677	0.2157
353.013	0.2144
353.349	0.2139
353.685	0.2133
354.02	0.2121
354.356	0.212
354.691	0.2105
355.027	0.2101
355.362	0.2078
355.697	0.2077
356.033	0.2068
356.368	0.2061
356.703	0.2047
357.038	0.2044
357.373	0.203
357.707	0.2032
358.042	0.2017
358.377	0.2005
358.711	0.2008
359.046	0.1988
359.38	0.1982
359.715	0.1978
360.049	0.1965
360.383	0.1956
360.717	0.1938
361.051	0.1931
361.385	0.192
361.719	0.19
362.053	0.1889
362.387	0.1875
362.72	0.1857
363.054	0.1844
363.387	0.1838
363.721	0.1812
364.054	0.18
364.387	0.1784
364.721	0.1769
365.054	0.1761
365.387	0.1743
365.72	0.1729
366.053	0.1719
366.385	0.1695
366.718	0.1693
367.051	0.1676
367.383	0.1661
367.716	0.1656
368.048	0.1643
368.381	0.1633
368.713	0.1609
369.045	0.1606
369.377	0.1596
369.709	0.1581
370.041	0.1565
370.373	0.1555
370.705	0.1545
371.037	0.1529
371.368	0.1527
371.7	0.1504
372.031	0.1492
372.363	0.1476
372.694	0.1458
373.025	0.1438
373.356	0.1424
373.688	0.1412
374.019	0.1392
374.35	0.1374
374.68	0.1358
375.011	0.1339
375.342	0.1327
375.673	0.1311
376.003	0.1288
376.334	0.1277
376.664	0.1261
376.995	0.1256
377.325	0.1239
377.655	0.1219
377.985	0.1205
378.315	0.1202
378.645	0.1186
378.975	0.1179
379.305	0.1159
379.635	0.1151
379.964	0.1146
380.294	0.1139
380.623	0.1118
380.953	0.1109
381.282	0.1098
381.611	0.1087
381.941	0.1079
382.27	0.1063
382.599	0.1057
382.928	0.1041
383.257	0.103
383.585	0.102
383.914	0.0998
384.243	0.099
384.571	0.0973
384.9	0.0961
385.228	0.0945
385.557	0.0933
385.885	0.0918
386.213	0.0906
386.541	0.0884
386.869	0.0875
387.197	0.0858
387.525	0.0852
387.853	0.0835
388.181	0.0826
388.508	0.0811
388.836	0.081
389.164	0.0794
389.491	0.0783
389.818	0.0763
390.146	0.0762
390.473	0.0746
390.8	0.0744
391.127	0.0722
391.454	0.0717
391.781	0.0712
392.108	0.0713
392.435	0.0691
392.761	0.0683
393.088	0.0683
393.415	0.0671
393.741	0.0669
394.067	0.0667
394.394	0.0655
394.72	0.0641
395.046	0.0628
395.372	0.063
395.698	0.0622
396.024	0.0608
396.35	0.0599
396.676	0.0598
397.001	0.0588
397.327	0.0577
397.653	0.057
397.978	0.0568
398.303	0.0556
398.629	0.0546
398.954	0.0541
399.279	0.0539
399.604	0.0529
399.929	0.0528
400.254	0.0513
400.579	0.0504
400.904	0.0503
401.229	0.0499
401.553	0.0495
401.878	0.0496
402.202	0.0489
402.527	0.0481
402.851	0.0476
403.175	0.0464
403.5	0.0462
403.824	0.0461
404.148	0.046
404.472	0.0453
404.796	0.0457
405.119	0.0446
405.443	0.0442
405.767	0.0441
406.09	0.0443
406.414	0.0439
406.737	0.0439
407.061	0.0437
407.384	0.043
407.707	0.0433
408.03	0.0428
408.353	0.0426
408.676	0.0426
408.999	0.0423
409.322	0.0415
409.645	0.0416
409.968	0.0418
410.29	0.0414
410.613	0.0417
410.935	0.0407
411.258	0.0414
411.58	0.0402
411.902	0.0405
412.224	0.0407
412.546	0.0409
412.868	0.042
413.19	0.0407
413.512	0.0408
413.834	0.0404
414.156	0.0407
414.477	0.0404
414.799	0.0405
415.121	0.0399
415.442	0.04
415.763	0.0401
416.085	0.0403
416.406	0.0397
416.727	0.0401
417.048	0.0406
417.369	0.0396
417.69	0.0397
418.011	0.0402
418.331	0.0395
418.652	0.0403
418.973	0.0391
419.293	0.0395
419.614	0.0388
419.934	0.0399
420.254	0.0397
420.574	0.0393
420.895	0.0392
421.215	0.0395
421.535	0.0396
421.855	0.039
422.174	0.0381
422.494	0.0391
422.814	0.0394
423.134	0.0392
423.453	0.0396
423.773	0.04
424.092	0.0396
424.411	0.0394
424.731	0.0398
425.05	0.04
425.369	0.0397
425.688	0.0397
426.007	0.0395
426.326	0.0396
426.644	0.0388
426.963	0.0393
427.282	0.0395
427.6	0.0395
427.919	0.039
428.237	0.0394
428.556	0.0395
428.874	0.0391
429.192	0.0395
429.51	0.0385
429.828	0.039
430.146	0.0391
430.464	0.0389
430.782	0.0398
431.1	0.0387
431.418	0.0387
431.735	0.0387
432.053	0.0393
432.37	0.0391
432.688	0.0388
433.005	0.039
433.322	0.0395
433.639	0.0394
433.957	0.0394
434.274	0.0396
434.591	0.0391
434.907	0.0393
435.224	0.0398
435.541	0.0397
435.858	0.0398
436.174	0.0395
436.491	0.0392
436.807	0.0394
437.124	0.039
437.44	0.0388
437.756	0.0394
438.072	0.0383
438.388	0.0389
438.704	0.039
439.02	0.0384
439.336	0.0386
439.652	0.0387
439.968	0.0383
440.283	0.0383
440.599	0.0391
440.914	0.0384
441.23	0.0391
441.545	0.0382
441.86	0.0386
442.175	0.0386
442.491	0.0379
442.806	0.0382
443.121	0.038
443.435	0.038
443.75	0.0376
444.065	0.0383
444.38	0.0373
444.694	0.0374
445.009	0.0377
445.323	0.0384
445.638	0.0376
445.952	0.0376
446.266	0.0375
446.58	0.0372
446.894	0.0373
447.208	0.0369
447.522	0.0362
447.836	0.0379
448.15	0.0365
448.464	0.0362
448.777	0.0372
449.091	0.0364
449.404	0.0364
449.718	0.036
450.031	0.0359
450.345	0.0361
450.658	0.0363
450.971	0.0361
451.284	0.0353
451.597	0.036
451.91	0.0357
452.223	0.0355
452.535	0.0353
452.848	0.0354
453.161	0.0348
453.473	0.0353
453.786	0.0348
454.098	0.0347
454.411	0.0353
454.723	0.0349
455.035	0.034
455.347	0.0338
455.659	0.0352
455.971	0.0345
456.283	0.0343
456.595	0.0346
456.907	0.0341
457.218	0.0346
457.53	0.0332
457.841	0.0333
458.153	0.0337
458.464	0.0332
458.776	0.0329
459.087	0.0336
459.398	0.0323
459.709	0.0321
460.02	0.033
460.331	0.033
460.642	0.0322
460.953	0.0319
461.263	0.032
461.574	0.0314
461.885	0.0324
462.195	0.0309
462.506	0.0314
462.816	0.0322
463.126	0.0312
463.437	0.0307
463.747	0.0301
464.057	0.03
464.367	0.0287
464.677	0.0308
464.987	0.0302
465.296	0.0298
465.606	0.0298
465.916	0.0288
466.225	0.0297
466.535	0.0288
466.844	0.0301
467.154	0.0293
467.463	0.0286
467.772	0.0281
468.081	0.0289
468.39	0.0287
468.699	0.0287
469.008	0.0277
469.317	0.0281
469.626	0.0286
469.935	0.0276
470.243	0.0275
470.552	0.0272
470.86	0.0273
471.169	0.0269
471.477	0.026
471.785	0.026
472.093	0.026
472.402	0.0264
472.71	0.0259
473.018	0.0252
473.326	0.0256
473.633	0.0261
473.941	0.0243
474.249	0.0253
474.556	0.0256
474.864	0.0249
475.171	0.0246
475.479	0.0242
475.786	0.0249
476.094	0.024
476.401	0.0237
476.708	0.0245
477.015	0.0234
477.322	0.0224
477.629	0.0226
477.936	0.0226
478.242	0.0228
478.549	0.0228
478.856	0.0228
479.162	0.0224
479.469	0.0223
479.775	0.0217
480.081	0.021
480.388	0.0204
480.694	0.0208
481	0.0211
481.306	0.0205
481.612	0.0211
481.918	0.0213
482.224	0.021
482.53	0.0202
482.835	0.0206
483.141	0.0205
483.446	0.0201
483.752	0.0197
484.057	0.0192
484.363	0.019
484.668	0.0192
484.973	0.0188
485.278	0.0184
485.583	0.0177
485.888	0.0183
486.193	0.0179
486.498	0.0179
486.803	0.0176
487.107	0.0177
487.412	0.0165
487.717	0.0163
488.021	0.0171
488.325	0.0168
488.63	0.0168
488.934	0.0171
489.238	0.0167
489.542	0.0164
489.846	0.016
490.15	0.0162
490.454	0.0161
490.758	0.0156
491.062	0.0161
491.366	0.0147
491.669	0.0152
491.973	0.0155
492.276	0.0152
492.58	0.0144
492.883	0.015
493.186	0.0134
493.489	0.0153
493.792	0.0132
494.096	0.0132
494.399	0.0138
494.701	0.014
495.004	0.0128
495.307	0.013
495.61	0.0135
495.912	0.0138
496.215	0.014
496.517	0.014
496.82	0.0125
497.122	0.0139
497.424	0.0129
497.727	0.0133
498.029	0.0121
498.331	0.012
498.633	0.0122
498.935	0.0119
499.237	0.0125
499.538	0.0121
499.84	0.0118
500.142	0.0113
500.443	0.0103
500.745	0.0123
501.046	0.0111
501.348	0.0107
501.649	0.011
501.95	0.0109
502.251	0.011
502.552	0.0104
502.853	0.011
503.154	0.0115
503.455	0.0098
503.756	0.0103
504.057	0.0096
504.357	0.0098
504.658	0.0101
504.958	0.0094
505.259	0.009
505.559	0.0096
505.859	0.0087
506.16	0.0084
506.46	0.0093
506.76	0.0084
507.06	0.0078
507.36	0.0085
507.66	0.0091
507.96	0.0101
508.259	0.0092
508.559	0.0088
508.859	0.0094
509.158	0.0085
509.457	0.0073
509.757	0.0068
510.056	0.0076
510.355	0.0077
510.655	0.007
510.954	0.0072
511.253	0.0078
511.552	0.0072
511.851	0.007
512.149	0.007
512.448	0.0068
512.747	0.007
513.045	0.0061
513.344	0.0059
513.642	0.0063
513.941	0.0075
514.239	0.0069
514.537	0.007
514.836	0.0066
515.134	0.0068
515.432	0.0059
515.73	0.0066
516.028	0.0064
516.326	0.0052
516.623	0.0051
516.921	0.0058
517.219	0.0072
517.516	0.0053
517.814	0.0067
518.111	0.0054
518.409	0.0063
518.706	0.0061
519.003	0.0046
519.3	0.0051
519.597	0.0066
519.894	0.0051
520.191	0.0063
520.488	0.0065
520.785	0.0052
521.082	0.0061
521.378	0.0057
521.675	0.0049
521.971	0.0047
522.268	0.0063
522.564	0.0056
522.861	0.0059
523.157	0.0051
523.453	0.0059
523.749	0.0051
524.045	0.005
524.341	0.005
524.637	0.0049
524.933	0.0051
525.229	0.0051
525.524	0.0042
525.82	0.0057
526.115	0.0048
526.411	0.0056
526.706	0.006
527.002	0.0051
527.297	0.0041
527.592	0.0052
527.887	0.0039
528.182	0.0042
528.477	0.0046
528.772	0.0036
529.067	0.0048
529.362	0.0046
529.657	0.0036
529.951	0.0046
530.246	0.003
530.54	0.0036
530.835	0.0038
531.129	0.0045
531.423	0.0033
531.718	0.0033
532.012	0.0028
532.306	0.0041
532.6	0.0024
532.894	0.0037
533.188	0.0031
533.482	0.0037
533.775	0.0034
534.069	0.0041
534.363	0.0032
534.656	0.0041
534.95	0.0034
535.243	0.0041
535.536	0.0029
535.83	0.0032
536.123	0.0023
536.416	0.0036
536.709	0.0032
537.002	0.0041
537.295	0.0039
537.588	0.0049
537.881	0.003
538.173	0.0045
538.466	0.0032
538.759	0.0043
539.051	0.0041
539.344	0.0034
539.636	0.0028
539.928	0.0045
540.22	0.0029
540.513	0.0035
540.805	0.0034
541.097	0.0037
541.389	0.0025
541.681	0.0042
541.972	0.0026
542.264	0.0033
542.556	0.0034
542.847	0.0027
543.139	0.0034
543.431	0.0025
543.722	0.0029
544.013	0.0032
544.305	0.0024
544.596	0.003
544.887	0.0029
545.178	0.0042
545.469	0.0036
545.76	0.0042
546.051	0.0034
546.342	0.0031
546.632	0.0032
546.923	0.0027
547.214	0.0026
547.504	0.0037
547.795	0.0021
548.085	0.0031
548.375	0.0039
548.666	0.0038
548.956	0.0042
549.246	0.0046
549.536	0.0041
549.826	0.0038
550.116	0.0038
550.406	0.0038
550.695	0.0034
550.985	0.0029
551.275	0.0042
551.564	0.0044
551.854	0.0055
552.143	0.004
552.433	0.0036
552.722	0.0046
553.011	0.0043
553.3	0.0035
553.589	0.0055
553.879	0.0049
554.167	0.0033
554.456	0.0042
554.745	0.0038
555.034	0.005
555.323	0.0044
555.611	0.004
555.9	0.0046
556.188	0.0033
556.477	0.0034
556.765	0.0041
557.053	0.0042
557.342	0.0035
557.63	0.0035
557.918	0.0048
558.206	0.0051
558.494	0.0043
558.782	0.0046
559.069	0.005
559.357	0.0044
559.645	0.0043
559.932	0.004
560.22	0.0041
560.507	0.0027
560.795	0.0031
561.082	0.0028
561.37	0.0035
561.657	0.0024
561.944	0.0032
562.231	0.0033
562.518	0.0033
562.805	0.0046
563.092	0.0029
563.379	0.0031
563.665	0.0047
563.952	0.0046
564.239	0.0045
564.525	0.0039
564.811	0.0043
565.098	0.0038
565.384	0.0043
565.67	0.0035
565.957	0.0036
566.243	0.0039
566.529	0.0036
566.815	0.0046
567.101	0.0034
567.387	0.0038
567.672	0.0037
567.958	0.0026
568.244	0.0024
568.529	0.0022
568.815	0.0031
569.1	0.0029
569.386	0.0036
569.671	0.0025
569.956	0.0035
570.242	0.0029
570.527	0.0025
570.812	0.0025
571.097	0.003
571.382	0.0021
571.666	0.0021
571.951	0.0035
572.236	0.0022
572.521	0.0033
572.805	0.0044
573.09	0.0035
573.374	0.0028
573.659	0.0031
573.943	0.003
574.227	0.0032
574.511	0.0029
574.795	0.0033
575.079	0.0035
575.363	0.0027
575.647	0.0029
575.931	0.0032
576.215	0.0036
576.499	0.0031
576.782	0.0025
577.066	0.0027
577.349	0.0036
577.633	0.0041
577.916	0.0032
578.2	0.0037
578.483	0.0031
578.766	0.0044
579.049	0.0032
579.332	0.0038
579.615	0.0033
579.898	0.0024
580.181	0.0027
580.464	0.0032
580.746	0.0027
581.029	0.0039
581.312	0.0028
581.594	0.0024
581.877	0.0025
582.159	0.0036
582.441	0.002
582.724	0.0034
583.006	0.0031
583.288	0.0032
583.57	0.003
583.852	0.0027
584.134	0.0037
584.416	0.0031
584.697	0.0027
584.979	0.0029
585.261	0.0028
585.542	0.0029
585.824	0.0037
586.105	0.0033
586.387	0.0033
586.668	0.0036
586.949	0.0039
587.231	0.0032
587.512	0.0031
587.793	0.0027
588.074	0.003
588.355	0.0038
588.636	0.003
588.916	0.0029
589.197	0.0028
589.478	0.003
589.758	0.0029
590.039	0.0021
590.319	0.002
590.6	0.0023
590.88	0.0024
591.16	0.0022
591.441	0.0026
591.721	0.0027
592.001	0.0015
592.281	0.003
592.561	0.0033
592.841	0.003
593.12	0.0025
593.4	0.003
593.68	0.0031
593.959	0.0029
594.239	0.0036
594.518	0.0041
594.798	0.0032
595.077	0.0029
595.356	0.003
595.636	0.0024
595.915	0.0031
596.194	0.0032
596.473	0.0035
596.752	0.0032
597.031	0.004
597.31	0.0031
597.588	0.0031
597.867	0.0032
598.146	0.0021
598.424	0.0014
598.703	0.0024
598.981	0.0023
599.259	0.002
599.538	0.0025
599.816	0.0035
600.094	0.0033
600.372	0.0031
600.65	0.0034
600.928	0.0032
601.206	0.0034
601.484	0.0031
601.762	0.0037
602.04	0.0039
602.317	0.0033
602.595	0.0036
602.872	0.0027
603.15	0.0034
603.427	0.002
603.704	0.002
603.982	0.0022
604.259	0.0028
604.536	0.0026
604.813	0.0033
605.09	0.0023
605.367	0.0023
605.644	0.0017
605.921	0.0018
606.197	0.0016
606.474	0.003
606.751	0.0023
607.027	0.0033
607.304	0.0023
607.58	0.003
607.856	0.0037
608.133	0.0044
608.409	0.0043
608.685	0.0043
608.961	0.0036
609.237	0.0039
609.513	0.0045
609.789	0.003
610.065	0.0028
610.341	0.0016
610.616	0.0017
610.892	0.0022
611.167	0.0016
611.443	0.0025
611.718	0.0023
611.994	0.0024
612.269	0.0017
612.544	0.0027
612.819	0.0024
613.095	0.0026
613.37	0.0018
613.645	0.002
613.919	0.0027
614.194	0.003
614.469	0.0029
614.744	0.0024
615.019	0.0025
615.293	0.0025
615.568	0.0026
615.842	0.0012
616.116	0.0015
616.391	0.0013
616.665	0.0019
616.939	0.0013
617.213	0.002
617.488	0.003
617.762	0.002
618.035	0.0036
618.309	0.0022
618.583	0.0026
618.857	0.0026
619.131	0.0025
619.404	0.0014
619.678	0.0034
619.951	0.0023
620.225	0.0014
620.498	0.0008
620.771	0.0019
621.045	0.0019
621.318	0.0027
621.591	0.0033
621.864	0.0016
622.137	0.0019
622.41	0.002
622.683	0.0018
622.956	0.0014
623.228	0.0021
623.501	0.002
623.774	0.0029
624.046	0.0023
624.319	0.0021
624.591	0.0012
624.863	0.0026
625.136	0.0024
625.408	0.0039
625.68	0.0032
625.952	0.003
626.224	0.0031
626.496	0.0029
626.768	0.0039
627.04	0.0031
627.311	0.0028
627.583	0.0033
627.855	0.0026
628.126	0.0014
628.398	0.0021
628.669	0.0012
628.941	-0.0003
629.212	0.0001
629.483	0.001
629.755	0.0007
630.026	0.0013
630.297	0.0004
630.568	0.001
630.839	0.0012
631.11	0.0006
631.38	0.0016
631.651	0.0002
631.922	0.0018
632.192	0.0018
632.463	0.0017
632.733	0.0005
633.004	0.0018
633.274	0.001
633.545	0.0016
633.815	0.0016
634.085	0.0011
634.355	0.0008
634.625	0.0016
634.895	0.0018
635.165	0.0012
635.435	0.0027
635.705	0.0021
635.974	0.0015
636.244	0.0005
636.514	0.0003
636.783	0.0011
637.053	0.002
637.322	0
637.591	0.0008
637.861	0.0001
638.13	0.0006
638.399	0.0008
638.668	0.0011
638.937	0.002
639.206	0.0012
639.475	0.0025
639.744	0.0008
640.013	0.0023
640.281	0.0013
640.55	0.0017
640.819	0.0018
641.087	0.0017
641.356	0.0023
641.624	0.0013
641.892	0.0014
642.161	0.0013
642.429	0.0014
642.697	0.0014
642.965	0.0019
643.233	-0.0004
643.501	0.0008
643.769	0.0016
644.037	-0.0003
644.305	0.0009
644.572	0.0004
644.84	-0.0004
645.108	0.0008
645.375	0.0006
645.643	0.0018
645.91	0.0018
646.177	0.0019
646.445	0.0013
646.712	0.0017
646.979	0.0018
647.246	0.0031
647.513	0.0027
647.78	0.0019
648.047	0.0006
648.314	-0.0001
648.58	0.0002
648.847	-0.0012
649.114	-0.0014
649.38	-0.0005
649.647	-0.0005
649.913	-0.0003
650.18	0.0004
650.446	0.0019
650.712	0.0027
650.978	0.0027
651.245	0.0035
651.511	0.0038
651.777	0.0027
652.043	0.0022
652.309	0.0028
652.574	0.0021
652.84	0.0024
653.106	0.0026
653.371	0.0038
653.637	0.0035
653.903	0.0031
654.168	0.0021
654.433	0.003
654.699	0.0013
654.964	-0.0008
655.229	0.0003
655.494	0.0015
655.759	0.0009
656.024	0.0006
656.289	-0
656.554	0.0014
656.819	0.0022
657.084	0.0031
657.349	0.003
657.613	0.0019
657.878	0.0011
658.142	0.0008
658.407	0.0003
658.671	0.0007
658.936	0.0008
659.2	0.0022
659.464	0.0021
659.728	0.0007
659.992	0.0003
660.256	-0.001
660.52	0.0004
660.784	0.0008
661.048	0.0013
661.312	0
661.575	0.0002
661.839	0.0012
662.103	0.0002
662.366	-0.0005
662.63	0.0011
662.893	-0.0002
663.156	0.0012
663.42	0.0019
663.683	0.0008
663.946	0.0014
664.209	0.0033
664.472	0.0024
664.735	0.0023
664.998	0.0034
665.261	0.004
665.524	0.0032
665.786	0.003
666.049	0.0028
666.312	0.002
666.574	0.002
666.837	0.0038
667.099	0.0037
667.361	0.0031
667.624	0.0029
667.886	0.0029
668.148	0.0029
668.41	0.0029
668.672	0.0024
668.934	0.0022
669.196	0.0026
669.458	0.0006
669.72	0.0008
669.982	0.0009
670.243	0.0001
670.505	0.0001
670.766	0.0007
671.028	0.002
671.289	0.0015
671.551	0.0021
671.812	0.0009
672.073	0.0015
672.334	0.001
672.596	0.0017
672.857	0.0013
673.118	0.0023
673.379	0.0031
673.639	0.0029
673.9	0.0029
674.161	0.0017
674.422	0.0021
674.682	0.0015
674.943	0.0011
675.203	0.001
675.464	0.0021
675.724	0.0013
675.985	0.0014
676.245	0.0017
676.505	0.0008
676.765	0.0005
677.025	0.001
677.285	0.0011
677.545	0.001
677.805	0.0003
678.065	0.0013
678.325	0.0022
678.585	0.0031
678.844	0.003
679.104	0.0038
679.363	0.0045
679.623	0.0048
679.882	0.0045
680.142	0.0046
680.401	0.005
680.66	0.0049
680.919	0.0026
681.178	0.0038
681.437	0.0027
681.696	0.0029
681.955	0.0043
682.214	0.0042
682.473	0.0043
682.732	0.0021
682.99	0.0052
683.249	0.0048
683.508	0.0042
683.766	0.0049
684.024	0.0035
684.283	0.0026
684.541	0.0016
684.799	0.0013
685.058	0.0005
685.316	0.0006
685.574	-0.0001
685.832	0.0007
686.09	0.0002
686.348	-0.001
686.606	-0.0005
686.863	-0.0012
687.121	-0.0013
687.379	-0.0023
687.636	-0.0026
687.894	-0.0023
688.151	-0.0018
688.409	-0.0007
688.666	-0.0007
688.923	-0.0011
689.181	-0.0003
689.438	-0.0013
689.695	0
689.952	-0.0001
690.209	-0.0003
690.466	-0.0011
690.723	-0.0002
690.979	-0.0006
691.236	-0.0012
691.493	-0.0019
691.75	-0.0016
692.006	-0.0009
692.263	-0.0011
692.519	-0.0004
692.775	-0.002
693.032	-0.0014
693.288	-0.0027
693.544	-0.0019
693.8	-0.0006
694.056	-0.0012
694.313	-0.0012
694.568	-0.0008
694.824	-0.0013
695.08	-0.0018
695.336	-0.0001
695.592	-0.0007
695.847	0.0013
696.103	0.0013
696.359	0.0019
696.614	0.0028
696.869	0.0013
697.125	0.0002
697.38	-0.0008
697.635	0.0003
697.891	0.0014
698.146	0.0005
698.401	-0.0002
698.656	-0.0003
698.911	0.0009
699.166	0.0008
699.42	0.0012
699.675	0.0018
699.93	0.0031
700.185	0.0033
700.439	0.0022
700.694	0.0022
700.948	0.0024
701.203	0.002
701.457	0.0015
701.711	0.0022
701.965	0.0008
702.22	0.0009
702.474	0.0008
702.728	0.0009
702.982	0.0006
703.236	0.0005
703.49	0.0004
703.743	-0.0001
703.997	0.0002
704.251	0.0002
704.504	0.002
704.758	0.0019
705.012	0.0025
705.265	0.002
705.518	0.0018
705.772	0.0015
706.025	0.0029
706.278	0.0017
706.531	0.0013
706.785	0.0001
707.038	-0.0001
707.291	-0
707.543	0.0005
707.796	0.0008
708.049	0.0008
708.302	0.0002
708.555	0.0012
708.807	0.001
709.06	0.0009
709.312	0.0022
709.565	0.0017
709.817	0.0026
710.069	0.002
710.322	0.0031
710.574	0.0022
710.826	0.0031
711.078	0.0022
711.33	0.0024
711.582	0.002
711.834	0.0013
712.086	0.0023
712.338	0.0026
712.59	0.0015
712.841	0.0003
713.093	0.0006
713.344	0.0018
713.596	0.0001
713.847	-0.0002
714.099	-0.0001
714.35	-0.0001
714.601	-0.0014
714.853	-0.0019
715.104	-0.0015
715.355	-0.0006
715.606	0.0002
715.857	-0.0002
716.108	0.0008
716.359	0.0013
716.609	-0.0002
716.86	0.0014
717.111	0.0009
717.361	0.001
717.612	0.0003
717.863	0.0016
718.113	0.0027
718.363	0.0017
718.614	0.002
718.864	0.002
719.114	0.0017
719.364	-0.0001
719.614	0.0005
719.865	0.0009
720.114	0.0004
720.364	0.0008
720.614	-0.0006
720.864	-0.0005
721.114	-0.0005
721.364	-0.0009
721.613	-0.001
721.863	-0.0009
722.112	-0.0004
722.362	-0
722.611	0.001
722.86	0.0005
723.11	0.0021
723.359	0.0015
723.608	0.0014
723.857	0.0031
724.106	0.0023
724.355	0.0025
724.604	0.0015
724.853	0.0011
725.102	-0.0003
725.351	-0.0017
725.599	-0.0023
725.848	-0.0011
726.097	-0.0004
726.345	-0.0013
726.594	-0.0011
726.842	0.0003
727.09	-0.0011
727.339	-0.0017
727.587	-0.0014
727.835	-0.0016
728.083	-0.0028
728.331	-0.0025
728.579	-0.0012
728.827	-0.0012
729.075	-0.0022
729.323	-0.0022
729.571	-0.002
729.818	-0.003
730.066	-0.0023
730.314	-0.0011
730.561	-0.0012
730.809	-0.0024
731.056	-0.0025
731.303	-0.0025
731.551	-0.0024
731.798	-0.002
732.045	-0.0013
732.292	-0.0011
732.539	-0.0007
732.786	-0.0018
733.033	-0.002
733.28	-0.0015
733.527	-0.0014
733.774	-0.0021
734.021	-0.0017
734.267	-0.001
734.514	-0.001
734.76	-0.0014
735.007	-0.0019
735.253	-0.0006
735.5	0.0012
735.746	0.0015
735.992	0.0016
736.238	0.0018
736.485	0.0015
736.731	0.0018
736.977	0.0011
737.223	0.0001
737.469	0
737.715	0.0003
737.96	0.0011
738.206	0.0005
738.452	0.0004
738.697	0.0005
738.943	-0.0009
739.189	0.0002
739.434	-0.0008
739.679	0.0003
739.925	0.0013
740.17	0.0024
740.415	0.0016
740.66	0.0017
740.906	0.0016
741.151	0.0013
741.396	0.0007
741.641	-0
741.886	0.0012
742.13	0.0009
742.375	0.0015
742.62	0.0001
742.865	0.0002
743.109	0.001
743.354	-0.0005
743.598	-0.0015
743.843	-0.0024
744.087	-0.0034
744.331	-0.0029
744.576	-0.0025
744.82	-0.0014
745.064	-0.001
745.308	-0.0006
745.552	-0.0015
745.796	-0.0012
746.04	-0.0014
746.284	-0.0011
746.528	-0.001
746.771	-0.0016
747.015	-0.001
747.259	-0.0018
747.502	-0.0018
747.746	-0.0012
747.989	-0.0005
748.233	-0.0003
748.476	-0
748.719	0.0002
748.963	0.0007
749.206	-0.0004
749.449	-0.0001
749.692	-0.0003
749.935	-0.0003
750.178	-0.0005
750.421	-0.0011
750.664	-0.0006
750.906	0.0002
751.149	-0.0007
751.392	0.0002
751.635	0
751.877	-0.0001
752.12	-0.0007
752.362	0.0002
752.604	-0.0003
752.847	-0.0004
753.089	-0.0002
753.331	0.0001
753.573	0.0001
753.816	-0.0002
754.058	0.0003
754.3	0
754.542	0.0021
754.783	0.0019
755.025	0.0025
755.267	0.0013
755.509	0.0011
755.75	0.0005
755.992	0.0007
756.234	0.0005
756.475	0.0007
756.716	-0.0001
756.958	-0.0008
757.199	-0.0013
757.44	-0.0008
757.682	-0.0003
757.923	0.0002
758.164	0.0004
758.405	0.0002
758.646	-0.0005
758.887	-0.0011
759.128	-0.0008
759.369	-0.0014
759.609	-0.0006
759.85	-0.0008
760.091	0.0004
760.331	0.0002
760.572	0.0002
760.812	-0.0001
761.053	0.0004
761.293	0.0007
761.533	0.0013
761.774	0.0018
762.014	0.0016
762.254	0.0016
762.494	0.0018
762.734	0.002
762.974	0.0019
763.214	0.0013
763.454	0.0013
763.694	0.0017
763.933	0.0025
764.173	0.0042
764.413	0.0036
764.652	0.0017
764.892	0.0017
765.131	0.001
765.371	-0.0001
765.61	-0.0006
765.849	-0.0021
766.089	-0.0025
766.328	-0.0012
766.567	-0.0031
766.806	-0.0029
767.045	-0.0044
767.284	-0.0029
767.523	-0.0033
767.762	-0.0032
768.001	-0.0027
768.239	-0.0027
768.478	-0.0027
768.717	-0.0028
768.955	-0.0033
769.194	-0.0025
769.432	-0.0017
769.671	-0.0017
769.909	-0.0015
770.148	-0.002
770.386	-0.0023
770.624	-0.0022
770.862	-0.0028
771.1	-0.0019
771.338	-0.002
771.576	-0.0013
771.814	-0.0002
772.052	-0
772.29	0.0017
772.528	-0.0001
772.765	-0.0012
773.003	-0.0005
773.24	-0.0001
773.478	-0.0012
773.716	0.0013
773.953	0.0008
774.19	0.0013
774.428	0.0021
774.665	0.0033
774.902	0.0032
775.139	0.0027
775.376	0.0016
775.613	0.0018
775.85	0.0012
776.087	0.0009
776.324	0.0005
776.561	-0.0007
776.798	-0.0009
777.034	-0.0005
777.271	-0.0003
777.508	-0.0005
777.744	0.0005
777.981	-0.0003
778.217	-0.0008
778.454	-0.0008
778.69	-0.0012
778.926	-0.0008
779.162	-0.0011
779.399	-0.0007
779.635	-0.0001
779.871	-0.0005
780.107	-0.0006
780.343	-0.0013
780.579	-0.001
780.814	-0.0008
781.05	-0.0005
781.286	-0.0009
781.522	-0.0009
781.757	-0.0026
781.993	-0.0011
782.228	-0.0023
782.464	-0.001
782.699	-0.001
782.934	-0.0007
783.17	-0.0008
783.405	0.0001
783.64	-0.0009
783.875	-0.0014
784.11	-0.0025
784.345	-0.0019
784.58	-0.0014
784.815	-0.0017
785.05	-0.0017
785.285	-0.0018
785.52	-0.0012
785.754	-0.0011
785.989	-0.0005
786.223	0.0007
786.458	0.001
786.692	0.0025
786.927	0.0023
787.161	0.0029
787.396	0.0031
787.63	0.0013
787.864	0.0003
788.098	-0.0009
788.332	-0.0009
788.566	-0.0015
788.8	-0.0011
789.034	-0
789.268	-0.0008
789.502	-0.0004
789.736	-0.0005
789.969	-0.0002
790.203	-0.0003
790.437	0.0006
790.67	0.0008
790.904	0.0013
791.137	0.0021
791.37	0.0019
791.604	0.0025
791.837	0.0038
792.07	0.0038
792.303	0.0038
792.537	0.0046
792.77	0.0037
793.003	0.0033
793.236	0.003
793.469	0.0028
793.701	0.0023
793.934	0.0022
794.167	0.0011
794.4	0.0011
794.632	0.0003
794.865	0.0001
795.097	-0.0013
795.33	-0.0003
795.562	-0.0006
795.795	-0.0005
796.027	0.0012
796.259	0.0017
796.491	0.0017
796.724	0.003
796.956	0.0023
797.188	0.0022
797.42	0.0022
797.652	0.0025
797.883	0.0027
798.115	0.0035
798.347	0.0026
798.579	0.0023
798.81	0.0018
799.042	0.002
799.274	0.0033
799.505	0.0027
799.737	0.0031
799.968	0.0031
800.199	0.002
800.431	0.0031
800.662	0.0026
800.893	0.0037
801.124	0.0031
801.355	0.0028
801.586	0.0048
801.817	0.0049
802.048	0.0048
802.279	0.0041
802.51	0.0048
802.741	0.0045
802.971	0.0049
803.202	0.003
803.433	0.0032
803.663	0.0023
803.894	0.0033
804.124	0.0034
804.354	0.0041
804.585	0.0053
804.815	0.0052
805.045	0.0064
805.275	0.0063
805.506	-0.0217
805.736	-0.0428
805.966	-0.0999
806.196	-0.0086
