Data from 03 0.4 mM K2Cr2O7 0.25 M BQDS 1 M H2SO4 5 min_Absorbance_0032.txt Node
Date: Tue Dec 14 20:10:13 EST 2021
User: kwabilab-user
Spectrometer: HDX00518
Trigger mode: 0
Integration Time (sec): 5.000000E-2
Scans to average: 50
Nonlinearity correction enabled: false
Boxcar width: 0
Storing dark spectrum: false
XAxis mode: Wavelengths
Number of Pixels in Spectrum: 2068
>>>>>Begin Spectral Data<<<<<
195.27	-0.0518
195.642	-0.1249
196.014	-0.1413
196.386	0.0447
196.758	-0.1162
197.129	-0.0411
197.501	-0.0387
197.872	0.0124
198.244	-0.0024
198.615	0.0399
198.986	0.0229
199.357	0.0161
199.728	0.0439
200.099	0.0175
200.47	0.0152
200.841	0.017
201.212	0.0218
201.582	0.0123
201.953	0.0341
202.323	0.0139
202.694	0.0131
203.064	0.0107
203.434	0.0102
203.804	0.0287
204.174	0.0249
204.544	0.0171
204.914	-0.0036
205.284	0.0275
205.653	0.0046
206.023	0.0175
206.393	0.0293
206.762	0.006
207.131	0.0358
207.501	0.0283
207.87	0.0267
208.239	0.0138
208.608	0.0052
208.977	0.0123
209.346	-0.0117
209.715	0.0249
210.083	0.017
210.452	0.0352
210.82	0.0175
211.189	0.0032
211.557	0.0149
211.925	0.0148
212.294	0.0128
212.662	0.0207
213.03	0.0299
213.398	0.0035
213.766	0.016
214.133	0.0266
214.501	0.0039
214.869	0.0176
215.236	0.0123
215.604	0.0268
215.971	0.0597
216.338	0.0386
216.705	0.0398
217.072	0.0353
217.439	0.0332
217.806	0.0433
218.173	0.056
218.54	0.0498
218.907	0.0639
219.273	0.0768
219.64	0.0741
220.006	0.0707
220.373	0.0891
220.739	0.1016
221.105	0.1246
221.471	0.1264
221.837	0.1509
222.203	0.1748
222.569	0.1833
222.935	0.1939
223.3	0.2076
223.666	0.2668
224.031	0.2742
224.397	0.302
224.762	0.3197
225.127	0.3384
225.493	0.3805
225.858	0.4154
226.223	0.4321
226.588	0.424
226.952	0.4418
227.317	0.4942
227.682	0.4967
228.046	0.5068
228.411	0.547
228.775	0.5384
229.14	0.5468
229.504	0.5789
229.868	0.5708
230.232	0.5768
230.596	0.6033
230.96	0.631
231.324	0.6071
231.688	0.628
232.052	0.6563
232.415	0.6251
232.779	0.6339
233.142	0.6532
233.505	0.6611
233.869	0.6614
234.232	0.665
234.595	0.6641
234.958	0.664
235.321	0.6692
235.684	0.6503
236.047	0.6665
236.409	0.6618
236.772	0.6519
237.134	0.6559
237.497	0.6499
237.859	0.6648
238.222	0.6513
238.584	0.6552
238.946	0.6496
239.308	0.6466
239.67	0.6442
240.032	0.6416
240.393	0.6357
240.755	0.6379
241.117	0.6378
241.478	0.6425
241.84	0.6347
242.201	0.6365
242.562	0.6265
242.924	0.6261
243.285	0.6221
243.646	0.6185
244.007	0.618
244.368	0.6217
244.728	0.615
245.089	0.6181
245.45	0.6161
245.81	0.6108
246.171	0.6096
246.531	0.6072
246.891	0.6076
247.252	0.6047
247.612	0.6036
247.972	0.6019
248.332	0.5959
248.692	0.5998
249.051	0.6025
249.411	0.6006
249.771	0.5956
250.13	0.6014
250.49	0.601
250.849	0.5982
251.208	0.6007
251.568	0.5942
251.927	0.594
252.286	0.592
252.645	0.5962
253.004	0.5971
253.363	0.5945
253.721	0.5919
254.08	0.5941
254.439	0.5913
254.797	0.5911
255.155	0.5928
255.514	0.5943
255.872	0.5955
256.23	0.5919
256.588	0.602
256.946	0.5931
257.304	0.5923
257.662	0.5937
258.02	0.5942
258.377	0.5858
258.735	0.5961
259.093	0.5898
259.45	0.5877
259.807	0.5931
260.165	0.5868
260.522	0.5889
260.879	0.5871
261.236	0.5876
261.593	0.5829
261.95	0.5873
262.306	0.5866
262.663	0.5769
263.02	0.577
263.376	0.5765
263.733	0.5769
264.089	0.5698
264.445	0.5686
264.802	0.5741
265.158	0.5671
265.514	0.5705
265.87	0.5652
266.226	0.5664
266.581	0.5633
266.937	0.5618
267.293	0.5598
267.648	0.5564
268.004	0.553
268.359	0.5504
268.714	0.5482
269.07	0.5493
269.425	0.5445
269.78	0.542
270.135	0.5405
270.49	0.5404
270.844	0.5419
271.199	0.5353
271.554	0.5316
271.908	0.5234
272.263	0.5245
272.617	0.5234
272.972	0.5198
273.326	0.5137
273.68	0.5064
274.034	0.5074
274.388	0.5045
274.742	0.5029
275.096	0.4993
275.45	0.4967
275.803	0.4914
276.157	0.4846
276.51	0.4828
276.864	0.4776
277.217	0.4805
277.571	0.4753
277.924	0.4694
278.277	0.4657
278.63	0.4591
278.983	0.4565
279.336	0.4553
279.688	0.451
280.041	0.4434
280.394	0.4374
280.746	0.4324
281.099	0.4287
281.451	0.4255
281.803	0.4209
282.156	0.4182
282.508	0.4136
282.86	0.4112
283.212	0.4085
283.564	0.4023
283.916	0.3982
284.267	0.3941
284.619	0.3896
284.971	0.3845
285.322	0.383
285.673	0.3811
286.025	0.3739
286.376	0.3714
286.727	0.3672
287.078	0.3619
287.429	0.3599
287.78	0.3531
288.131	0.3497
288.482	0.3454
288.833	0.3425
289.183	0.3393
289.534	0.3331
289.884	0.3336
290.235	0.3272
290.585	0.3237
290.935	0.32
291.285	0.3154
291.635	0.3118
291.985	0.3093
292.335	0.3051
292.685	0.3008
293.035	0.296
293.384	0.2933
293.734	0.2885
294.083	0.287
294.433	0.2831
294.782	0.2793
295.131	0.276
295.48	0.2707
295.829	0.2689
296.179	0.266
296.527	0.2605
296.876	0.2587
297.225	0.2543
297.574	0.2501
297.922	0.2469
298.271	0.2441
298.619	0.2407
298.968	0.2386
299.316	0.2349
299.664	0.2318
300.012	0.2278
300.36	0.2242
300.708	0.2224
301.056	0.2193
301.404	0.2173
301.752	0.2149
302.099	0.2114
302.447	0.2089
302.794	0.2064
303.142	0.2032
303.489	0.2014
303.836	0.1983
304.183	0.1973
304.531	0.1953
304.878	0.1922
305.224	0.191
305.571	0.1881
305.918	0.186
306.265	0.1845
306.611	0.1832
306.958	0.1821
307.304	0.1799
307.651	0.1784
307.997	0.1767
308.343	0.1746
308.689	0.1745
309.035	0.1736
309.381	0.1717
309.727	0.1707
310.073	0.1697
310.419	0.1691
310.764	0.1678
311.11	0.167
311.455	0.1663
311.801	0.1657
312.146	0.1646
312.491	0.1638
312.837	0.1641
313.182	0.1624
313.527	0.1624
313.872	0.1621
314.216	0.1623
314.561	0.1615
314.906	0.1609
315.251	0.1619
315.595	0.1613
315.94	0.1606
316.284	0.161
316.628	0.1613
316.972	0.1604
317.317	0.161
317.661	0.1613
318.005	0.1613
318.348	0.1612
318.692	0.1617
319.036	0.1626
319.38	0.1626
319.723	0.1625
320.067	0.1638
320.41	0.1639
320.754	0.165
321.097	0.1645
321.44	0.166
321.783	0.1665
322.126	0.1679
322.469	0.168
322.812	0.169
323.155	0.1699
323.498	0.1703
323.84	0.1713
324.183	0.1723
324.525	0.1737
324.868	0.1755
325.21	0.1746
325.552	0.1758
325.894	0.1774
326.236	0.1779
326.578	0.1788
326.92	0.1801
327.262	0.1811
327.604	0.1819
327.946	0.1833
328.287	0.1844
328.629	0.1859
328.97	0.1862
329.312	0.1875
329.653	0.1895
329.994	0.1904
330.335	0.1914
330.676	0.193
331.017	0.1941
331.358	0.1958
331.699	0.1972
332.04	0.1974
332.38	0.1988
332.721	0.1997
333.061	0.2012
333.402	0.203
333.742	0.2033
334.083	0.2047
334.423	0.205
334.763	0.2068
335.103	0.2075
335.443	0.209
335.783	0.2098
336.123	0.2099
336.462	0.2121
336.802	0.2126
337.141	0.2134
337.481	0.215
337.82	0.2159
338.16	0.2165
338.499	0.2181
338.838	0.2186
339.177	0.2196
339.516	0.2195
339.855	0.2213
340.194	0.2221
340.533	0.2227
340.872	0.223
341.21	0.2245
341.549	0.2257
341.887	0.2259
342.226	0.2264
342.564	0.2268
342.902	0.227
343.24	0.2269
343.578	0.2275
343.916	0.2282
344.254	0.2293
344.592	0.2291
344.93	0.2288
345.268	0.2285
345.605	0.2294
345.943	0.2297
346.28	0.2296
346.618	0.2299
346.955	0.2295
347.292	0.2302
347.629	0.2301
347.966	0.2299
348.303	0.2308
348.64	0.2299
348.977	0.2296
349.314	0.23
349.65	0.2297
349.987	0.2305
350.324	0.2292
350.66	0.2303
350.996	0.2288
351.333	0.2287
351.669	0.2277
352.005	0.2273
352.341	0.2262
352.677	0.2252
353.013	0.2246
353.349	0.2243
353.685	0.2229
354.02	0.2219
354.356	0.222
354.691	0.22
355.027	0.2194
355.362	0.2178
355.697	0.217
356.033	0.2165
356.368	0.2165
356.703	0.2151
357.038	0.2142
357.373	0.212
357.707	0.2129
358.042	0.2117
358.377	0.2104
358.711	0.2102
359.046	0.2085
359.38	0.2078
359.715	0.2074
360.049	0.2052
360.383	0.2044
360.717	0.2031
361.051	0.2024
361.385	0.2004
361.719	0.1995
362.053	0.1988
362.387	0.196
362.72	0.1946
363.054	0.1935
363.387	0.1916
363.721	0.1898
364.054	0.1889
364.387	0.1872
364.721	0.1854
365.054	0.1838
365.387	0.1819
365.72	0.1811
366.053	0.1797
366.385	0.1774
366.718	0.1775
367.051	0.1752
367.383	0.1738
367.716	0.1737
368.048	0.1718
368.381	0.1706
368.713	0.1695
369.045	0.1687
369.377	0.1669
369.709	0.1665
370.041	0.1644
370.373	0.1632
370.705	0.1624
371.037	0.1606
371.368	0.1597
371.7	0.1577
372.031	0.156
372.363	0.1543
372.694	0.1531
373.025	0.1511
373.356	0.1493
373.688	0.148
374.019	0.1465
374.35	0.1447
374.68	0.1427
375.011	0.1408
375.342	0.1388
375.673	0.1381
376.003	0.1358
376.334	0.1347
376.664	0.1328
376.995	0.1316
377.325	0.1299
377.655	0.128
377.985	0.1269
378.315	0.1257
378.645	0.1243
378.975	0.1238
379.305	0.122
379.635	0.1211
379.964	0.1198
380.294	0.1189
380.623	0.1174
380.953	0.1165
381.282	0.1159
381.611	0.1149
381.941	0.1134
382.27	0.1115
382.599	0.1112
382.928	0.1095
383.257	0.1075
383.585	0.1072
383.914	0.1055
384.243	0.1033
384.571	0.1023
384.9	0.1014
385.228	0.0986
385.557	0.0984
385.885	0.0964
386.213	0.0955
386.541	0.0941
386.869	0.0926
387.197	0.0905
387.525	0.0896
387.853	0.0876
388.181	0.0868
388.508	0.0855
388.836	0.0847
389.164	0.0832
389.491	0.0816
389.818	0.0807
390.146	0.0804
390.473	0.079
390.8	0.0786
391.127	0.0767
391.454	0.0754
391.781	0.0753
392.108	0.0749
392.435	0.0731
392.761	0.0726
393.088	0.072
393.415	0.0709
393.741	0.0706
394.067	0.0699
394.394	0.0691
394.72	0.068
395.046	0.0669
395.372	0.0662
395.698	0.0651
396.024	0.0642
396.35	0.0643
396.676	0.0629
397.001	0.0618
397.327	0.0607
397.653	0.0605
397.978	0.0601
398.303	0.0586
398.629	0.058
398.954	0.0573
399.279	0.0572
399.604	0.0561
399.929	0.0555
400.254	0.0548
400.579	0.0541
400.904	0.053
401.229	0.0528
401.553	0.0525
401.878	0.0515
402.202	0.0514
402.527	0.0508
402.851	0.0508
403.175	0.05
403.5	0.0492
403.824	0.0491
404.148	0.0483
404.472	0.048
404.796	0.0478
405.119	0.047
405.443	0.0472
405.767	0.0474
406.09	0.0471
406.414	0.0465
406.737	0.0467
407.061	0.0458
407.384	0.0455
407.707	0.0453
408.03	0.0454
408.353	0.045
408.676	0.0445
408.999	0.0448
409.322	0.0439
409.645	0.0442
409.968	0.0441
410.29	0.0438
410.613	0.0442
410.935	0.0435
411.258	0.0436
411.58	0.0428
411.902	0.0432
412.224	0.0432
412.546	0.0431
412.868	0.044
413.19	0.0433
413.512	0.0429
413.834	0.0429
414.156	0.0429
414.477	0.0422
414.799	0.0428
415.121	0.042
415.442	0.0424
415.763	0.042
416.085	0.0425
416.406	0.0417
416.727	0.0426
417.048	0.0425
417.369	0.0421
417.69	0.0424
418.011	0.0419
418.331	0.0421
418.652	0.0418
418.973	0.0418
419.293	0.0422
419.614	0.0415
419.934	0.0421
420.254	0.0418
420.574	0.0412
420.895	0.0413
421.215	0.0418
421.535	0.042
421.855	0.0413
422.174	0.041
422.494	0.0413
422.814	0.0407
423.134	0.0414
423.453	0.0422
423.773	0.0415
424.092	0.0421
424.411	0.0414
424.731	0.0418
425.05	0.0426
425.369	0.0415
425.688	0.0414
426.007	0.0411
426.326	0.0418
426.644	0.0414
426.963	0.0411
427.282	0.0417
427.6	0.0418
427.919	0.0418
428.237	0.0419
428.556	0.0421
428.874	0.0409
429.192	0.0418
429.51	0.0412
429.828	0.0415
430.146	0.0419
430.464	0.0413
430.782	0.0413
431.1	0.0413
431.418	0.0407
431.735	0.0409
432.053	0.0414
432.37	0.0409
432.688	0.0409
433.005	0.0405
433.322	0.0413
433.639	0.0412
433.957	0.0412
434.274	0.0417
434.591	0.0414
434.907	0.0412
435.224	0.0411
435.541	0.0417
435.858	0.0422
436.174	0.0417
436.491	0.0416
436.807	0.0413
437.124	0.0403
437.44	0.0402
437.756	0.0414
438.072	0.0412
438.388	0.0414
438.704	0.0402
439.02	0.041
439.336	0.0406
439.652	0.0406
439.968	0.0404
440.283	0.0406
440.599	0.0408
440.914	0.0405
441.23	0.041
441.545	0.0407
441.86	0.041
442.175	0.0409
442.491	0.0403
442.806	0.04
443.121	0.0397
443.435	0.0399
443.75	0.0397
444.065	0.0401
444.38	0.0398
444.694	0.0394
445.009	0.0397
445.323	0.0401
445.638	0.0401
445.952	0.0396
446.266	0.0391
446.58	0.0385
446.894	0.0394
447.208	0.039
447.522	0.0386
447.836	0.0394
448.15	0.0386
448.464	0.0376
448.777	0.0391
449.091	0.0385
449.404	0.0378
449.718	0.038
450.031	0.0373
450.345	0.0381
450.658	0.0373
450.971	0.0379
451.284	0.037
451.597	0.038
451.91	0.0372
452.223	0.0377
452.535	0.0374
452.848	0.0367
453.161	0.0373
453.473	0.0374
453.786	0.0365
454.098	0.0368
454.411	0.0359
454.723	0.0365
455.035	0.0356
455.347	0.0355
455.659	0.0359
455.971	0.0364
456.283	0.0361
456.595	0.0358
456.907	0.0368
457.218	0.0359
457.53	0.0353
457.841	0.0346
458.153	0.0351
458.464	0.0345
458.776	0.0345
459.087	0.0347
459.398	0.0344
459.709	0.0337
460.02	0.0345
460.331	0.035
460.642	0.0338
460.953	0.0339
461.263	0.0338
461.574	0.0329
461.885	0.0335
462.195	0.0326
462.506	0.0332
462.816	0.0333
463.126	0.0325
463.437	0.033
463.747	0.0315
464.057	0.0313
464.367	0.0307
464.677	0.0322
464.987	0.0314
465.296	0.0313
465.606	0.032
465.916	0.0316
466.225	0.0313
466.535	0.0302
466.844	0.0312
467.154	0.0309
467.463	0.0305
467.772	0.0298
468.081	0.03
468.39	0.0298
468.699	0.0298
469.008	0.0294
469.317	0.0293
469.626	0.0295
469.935	0.0282
470.243	0.0287
470.552	0.0285
470.86	0.0288
471.169	0.0285
471.477	0.0275
471.785	0.0267
472.093	0.0275
472.402	0.0272
472.71	0.0265
473.018	0.0266
473.326	0.0269
473.633	0.0269
473.941	0.0266
474.249	0.0269
474.556	0.0267
474.864	0.0261
475.171	0.0263
475.479	0.0256
475.786	0.0258
476.094	0.0244
476.401	0.0247
476.708	0.0248
477.015	0.0243
477.322	0.0224
477.629	0.0234
477.936	0.0239
478.242	0.0234
478.549	0.0234
478.856	0.0233
479.162	0.0238
479.469	0.0222
479.775	0.0229
480.081	0.0218
480.388	0.0223
480.694	0.0224
481	0.0216
481.306	0.0224
481.612	0.0223
481.918	0.0227
482.224	0.0224
482.53	0.022
482.835	0.022
483.141	0.0212
483.446	0.0213
483.752	0.0203
484.057	0.0202
484.363	0.0196
484.668	0.0207
484.973	0.02
485.278	0.019
485.583	0.0185
485.888	0.0201
486.193	0.0184
486.498	0.0183
486.803	0.0185
487.107	0.0186
487.412	0.0174
487.717	0.0177
488.021	0.0188
488.325	0.0175
488.63	0.0182
488.934	0.0183
489.238	0.0166
489.542	0.0173
489.846	0.0176
490.15	0.0173
490.454	0.0177
490.758	0.0169
491.062	0.0169
491.366	0.0172
491.669	0.0162
491.973	0.0163
492.276	0.0163
492.58	0.016
492.883	0.0163
493.186	0.0152
493.489	0.0154
493.792	0.014
494.096	0.014
494.399	0.0146
494.701	0.014
495.004	0.0134
495.307	0.014
495.61	0.0144
495.912	0.0148
496.215	0.0145
496.517	0.0151
496.82	0.0139
497.122	0.014
497.424	0.0133
497.727	0.0132
498.029	0.013
498.331	0.0129
498.633	0.0124
498.935	0.0126
499.237	0.0128
499.538	0.0119
499.84	0.0125
500.142	0.0117
500.443	0.0111
500.745	0.0123
501.046	0.0117
501.348	0.0114
501.649	0.011
501.95	0.0118
502.251	0.0118
502.552	0.0103
502.853	0.0109
503.154	0.0115
503.455	0.011
503.756	0.0113
504.057	0.0105
504.357	0.0097
504.658	0.0107
504.958	0.0102
505.259	0.01
505.559	0.009
505.859	0.009
506.16	0.0095
506.46	0.01
506.76	0.0095
507.06	0.0081
507.36	0.0079
507.66	0.0091
507.96	0.0101
508.259	0.009
508.559	0.0083
508.859	0.0091
509.158	0.0086
509.457	0.0082
509.757	0.0082
510.056	0.0081
510.355	0.0082
510.655	0.0075
510.954	0.007
511.253	0.0079
511.552	0.0083
511.851	0.0073
512.149	0.0074
512.448	0.0067
512.747	0.0068
513.045	0.0072
513.344	0.0074
513.642	0.0063
513.941	0.0073
514.239	0.0069
514.537	0.0062
514.836	0.0064
515.134	0.0065
515.432	0.0061
515.73	0.0063
516.028	0.0068
516.326	0.0058
516.623	0.0056
516.921	0.0049
517.219	0.0066
517.516	0.0052
517.814	0.006
518.111	0.0054
518.409	0.0055
518.706	0.0056
519.003	0.0052
519.3	0.0055
519.597	0.0065
519.894	0.0049
520.191	0.0059
520.488	0.0061
520.785	0.0052
521.082	0.0056
521.378	0.0054
521.675	0.0041
521.971	0.0047
522.268	0.0058
522.564	0.0057
522.861	0.0064
523.157	0.0052
523.453	0.0047
523.749	0.0046
524.045	0.0049
524.341	0.0044
524.637	0.004
524.933	0.0043
525.229	0.0048
525.524	0.003
525.82	0.0048
526.115	0.0042
526.411	0.0044
526.706	0.0048
527.002	0.0052
527.297	0.004
527.592	0.0051
527.887	0.0037
528.182	0.0036
528.477	0.0044
528.772	0.0038
529.067	0.0039
529.362	0.0044
529.657	0.0041
529.951	0.0036
530.246	0.0027
530.54	0.0033
530.835	0.0031
531.129	0.0036
531.423	0.0038
531.718	0.0034
532.012	0.0027
532.306	0.0028
532.6	0.0029
532.894	0.0035
533.188	0.0036
533.482	0.0037
533.775	0.0034
534.069	0.0034
534.363	0.0027
534.656	0.0027
534.95	0.0032
535.243	0.0031
535.536	0.0021
535.83	0.0027
536.123	0.0018
536.416	0.0036
536.709	0.003
537.002	0.0035
537.295	0.003
537.588	0.0034
537.881	0.003
538.173	0.0027
538.466	0.0032
538.759	0.0036
539.051	0.0029
539.344	0.0038
539.636	0.0028
539.928	0.0044
540.22	0.0031
540.513	0.0041
540.805	0.0032
541.097	0.0037
541.389	0.0027
541.681	0.0036
541.972	0.0035
542.264	0.0048
542.556	0.0035
542.847	0.0026
543.139	0.0045
543.431	0.0033
543.722	0.0027
544.013	0.0038
544.305	0.0038
544.596	0.0035
544.887	0.0035
545.178	0.0048
545.469	0.0041
545.76	0.0032
546.051	0.0048
546.342	0.0042
546.632	0.0035
546.923	0.0034
547.214	0.0019
547.504	0.0041
547.795	0.0027
548.085	0.0029
548.375	0.0037
548.666	0.004
548.956	0.0034
549.246	0.004
549.536	0.0034
549.826	0.0041
550.116	0.0037
550.406	0.0034
550.695	0.0032
550.985	0.0035
551.275	0.0045
551.564	0.0048
551.854	0.0049
552.143	0.0043
552.433	0.004
552.722	0.0043
553.011	0.004
553.3	0.0027
553.589	0.0042
553.879	0.0039
554.167	0.0031
554.456	0.0038
554.745	0.0033
555.034	0.0047
555.323	0.004
555.611	0.0043
555.9	0.0042
556.188	0.0031
556.477	0.0029
556.765	0.0042
557.053	0.0037
557.342	0.0031
557.63	0.0028
557.918	0.0034
558.206	0.0038
558.494	0.0035
558.782	0.0035
559.069	0.0045
559.357	0.0035
559.645	0.0047
559.932	0.0044
560.22	0.0039
560.507	0.0016
560.795	0.0026
561.082	0.0018
561.37	0.0035
561.657	0.0027
561.944	0.0028
562.231	0.0025
562.518	0.0035
562.805	0.0038
563.092	0.0031
563.379	0.0048
563.665	0.0032
563.952	0.0041
564.239	0.005
564.525	0.0038
564.811	0.0031
565.098	0.0035
565.384	0.0031
565.67	0.0031
565.957	0.0036
566.243	0.0046
566.529	0.0031
566.815	0.0033
567.101	0.0033
567.387	0.0023
567.672	0.0037
567.958	0.0025
568.244	0.0019
568.529	0.0027
568.815	0.0028
569.1	0.0021
569.386	0.003
569.671	0.0023
569.956	0.0029
570.242	0.0033
570.527	0.0023
570.812	0.003
571.097	0.0024
571.382	0.0016
571.666	0.002
571.951	0.0032
572.236	0.003
572.521	0.0026
572.805	0.003
573.09	0.0031
573.374	0.0027
573.659	0.0019
573.943	0.0021
574.227	0.0029
574.511	0.0039
574.795	0.0029
575.079	0.0031
575.363	0.0027
575.647	0.0021
575.931	0.0035
576.215	0.0029
576.499	0.0023
576.782	0.0028
577.066	0.0023
577.349	0.0024
577.633	0.0033
577.916	0.0034
578.2	0.0033
578.483	0.003
578.766	0.0029
579.049	0.0027
579.332	0.0031
579.615	0.0034
579.898	0.0021
580.181	0.0024
580.464	0.0024
580.746	0.0023
581.029	0.0032
581.312	0.003
581.594	0.0025
581.877	0.0022
582.159	0.0031
582.441	0.0019
582.724	0.0021
583.006	0.0027
583.288	0.0031
583.57	0.0029
583.852	0.003
584.134	0.0034
584.416	0.0026
584.697	0.0038
584.979	0.0029
585.261	0.0034
585.542	0.0024
585.824	0.0033
586.105	0.0028
586.387	0.0026
586.668	0.0029
586.949	0.0034
587.231	0.0032
587.512	0.0029
587.793	0.0024
588.074	0.0025
588.355	0.0025
588.636	0.0026
588.916	0.0032
589.197	0.0016
589.478	0.0031
589.758	0.0025
590.039	0.002
590.319	0.002
590.6	0.0017
590.88	0.0023
591.16	0.0018
591.441	0.0025
591.721	0.002
592.001	0.0023
592.281	0.0026
592.561	0.0027
592.841	0.0038
593.12	0.0022
593.4	0.0028
593.68	0.0025
593.959	0.002
594.239	0.0029
594.518	0.0033
594.798	0.0036
595.077	0.0027
595.356	0.0025
595.636	0.0026
595.915	0.0013
596.194	0.0024
596.473	0.0022
596.752	0.0021
597.031	0.003
597.31	0.002
597.588	0.0018
597.867	0.0024
598.146	0.0007
598.424	0.0006
598.703	0.002
598.981	0.0023
599.259	0.0012
599.538	0.0022
599.816	0.0033
600.094	0.0033
600.372	0.0027
600.65	0.003
600.928	0.0034
601.206	0.0031
601.484	0.0025
601.762	0.0025
602.04	0.0041
602.317	0.0028
602.595	0.003
602.872	0.0031
603.15	0.0033
603.427	0.0021
603.704	0.0019
603.982	0.0022
604.259	0.0019
604.536	0.0026
604.813	0.0023
605.09	0.0025
605.367	0.002
605.644	0.0015
605.921	0.0021
606.197	0.0019
606.474	0.0017
606.751	0.0021
607.027	0.0023
607.304	0.0028
607.58	0.0029
607.856	0.0033
608.133	0.0035
608.409	0.0034
608.685	0.0036
608.961	0.0029
609.237	0.0033
609.513	0.0041
609.789	0.0024
610.065	0.0025
610.341	0.0016
610.616	0.0018
610.892	0.0024
611.167	0.0029
611.443	0.0037
611.718	0.0034
611.994	0.0035
612.269	0.0021
612.544	0.0033
612.819	0.0023
613.095	0.0024
613.37	0.0022
613.645	0.0019
613.919	0.0019
614.194	0.0018
614.469	0.002
614.744	0.003
615.019	0.0016
615.293	0.002
615.568	0.0015
615.842	0.0012
616.116	0.0016
616.391	0.0009
616.665	0.0007
616.939	0.001
617.213	0.0011
617.488	0.0019
617.762	0.0019
618.035	0.0032
618.309	0.0021
618.583	0.0027
618.857	0.0025
619.131	0.0028
619.404	0.002
619.678	0.0033
619.951	0.0027
620.225	0.0018
620.498	0.0017
620.771	0.0017
621.045	0.002
621.318	0.0026
621.591	0.0028
621.864	0.0018
622.137	0.0011
622.41	0.0009
622.683	0.0004
622.956	-0.0002
623.228	0.002
623.501	0.0019
623.774	0.0012
624.046	0.0012
624.319	0.0014
624.591	0.0014
624.863	0.0007
625.136	0.0021
625.408	0.0038
625.68	0.0028
625.952	0.0013
626.224	0.002
626.496	0.0021
626.768	0.0015
627.04	0.0021
627.311	0.0019
627.583	0.0019
627.855	0.0017
628.126	0.0005
628.398	0.0005
628.669	0.0007
628.941	-0.0009
629.212	0.0004
629.483	-0.0001
629.755	0.0006
630.026	0.0005
630.297	0.0002
630.568	-0.0002
630.839	0.0005
631.11	0.0012
631.38	0.0008
631.651	0.0009
631.922	0.0022
632.192	0.0018
632.463	0.0014
632.733	0
633.004	0.0007
633.274	0.0002
633.545	0.0006
633.815	0.0015
634.085	0.001
634.355	0.0007
634.625	0.0012
634.895	0.0007
635.165	0.001
635.435	0.0028
635.705	0.0024
635.974	0.0019
636.244	0.0007
636.514	0.0001
636.783	0.0002
637.053	0.0016
637.322	0.0002
637.591	0.0001
637.861	-0.0017
638.13	0.0003
638.399	0.0004
638.668	0.001
638.937	0.0007
639.206	0.0004
639.475	0.0012
639.744	0.0002
640.013	0.0006
640.281	0.0008
640.55	0.0005
640.819	0.0008
641.087	0.0002
641.356	0.0009
641.624	-0.0001
641.892	0.001
642.161	0.0006
642.429	0.0001
642.697	0.0011
642.965	-0.0007
643.233	-0.0023
643.501	-0.0003
643.769	-0.0014
644.037	-0.0013
644.305	-0.001
644.572	-0.0016
644.84	-0.0013
645.108	-0.0002
645.375	0.0005
645.643	0.0006
645.91	0.0009
646.177	0.0008
646.445	-0.0004
646.712	0.0008
646.979	-0.0003
647.246	0.0014
647.513	0.0006
647.78	0.0008
648.047	-0.001
648.314	-0.0002
648.58	-0.0012
648.847	-0.0027
649.114	-0.0027
649.38	-0.0014
649.647	-0.0025
649.913	-0.0017
650.18	-0.0013
650.446	0.0001
650.712	0.0009
650.978	0.0016
651.245	0.0018
651.511	0.0021
651.777	0.0021
652.043	0.0015
652.309	0.0014
652.574	0.0005
652.84	0.0013
653.106	0.0011
653.371	0.0019
653.637	0.0017
653.903	0.0011
654.168	0.0004
654.433	0.0002
654.699	-0.0002
654.964	-0.0007
655.229	-0
655.494	0.001
655.759	0.0019
656.024	0.0001
656.289	-0
656.554	-0.0013
656.819	-0.0002
657.084	0.0011
657.349	0.0017
657.613	0.0004
657.878	0.0002
658.142	-0.0004
658.407	-0.0007
658.671	-0.0002
658.936	-0
659.2	0.0005
659.464	-0.0003
659.728	-0.0004
659.992	-0.0008
660.256	-0.0028
660.52	-0.0013
660.784	-0.0014
661.048	-0.0004
661.312	-0.0012
661.575	-0.0008
661.839	-0.0004
662.103	-0.0011
662.366	-0.0006
662.63	-0.0005
662.893	0.0003
663.156	0.0009
663.42	0.0014
663.683	0.0002
663.946	0.0009
664.209	0.0011
664.472	0.0004
664.735	0.0012
664.998	0.0011
665.261	0.0013
665.524	0.0024
665.786	0.0015
666.049	0.0011
666.312	0.0008
666.574	0.0011
666.837	0.0023
667.099	0.0013
667.361	0.0032
667.624	0.0019
667.886	0.0014
668.148	0.002
668.41	0.0021
668.672	0.0013
668.934	0.0006
669.196	0.0007
669.458	-0.0006
669.72	-0.0001
669.982	-0.0006
670.243	-0.0003
670.505	0.0005
670.766	0.0005
671.028	0.0006
671.289	0.0009
671.551	0.0021
671.812	0.0003
672.073	0.0005
672.334	0.0001
672.596	-0.0001
672.857	0.0002
673.118	0.0005
673.379	0.0012
673.639	0.0009
673.9	0.0006
674.161	0.0005
674.422	-0.0003
674.682	-0.0009
674.943	-0.002
675.203	-0.0009
675.464	0.0003
675.724	-0.0009
675.985	0.0004
676.245	-0.0003
676.505	-0.0011
676.765	-0.0009
677.025	-0.0003
677.285	-0.0008
677.545	-0.0006
677.805	-0.0009
678.065	0.0002
678.325	-0.0002
678.585	0.0017
678.844	0.002
679.104	0.0018
679.363	0.0027
679.623	0.0023
679.882	0.0027
680.142	0.0025
680.401	0.0027
680.66	0.0028
680.919	0.0014
681.178	0.0021
681.437	0.002
681.696	0.0022
681.955	0.0035
682.214	0.0038
682.473	0.0027
682.732	0.0015
682.99	0.0024
683.249	0.0024
683.508	0.0027
683.766	0.0021
684.024	0.0014
684.283	0.0001
684.541	0.0006
684.799	-0.0004
685.058	-0.0022
685.316	-0.0014
685.574	-0.0018
685.832	-0.0011
686.09	-0.0013
686.348	-0.0021
686.606	-0.002
686.863	-0.0024
687.121	-0.0027
687.379	-0.0022
687.636	-0.0033
687.894	-0.0031
688.151	-0.0027
688.409	-0.0024
688.666	-0.0016
688.923	-0.0024
689.181	-0.0019
689.438	-0.0022
689.695	-0.0012
689.952	-0.0013
690.209	-0.0015
690.466	-0.0015
690.723	-0.0015
690.979	-0.002
691.236	-0.0019
691.493	-0.0032
691.75	-0.0015
692.006	-0.0021
692.263	-0.0015
692.519	-0.002
692.775	-0.0029
693.032	-0.0035
693.288	-0.0039
693.544	-0.0027
693.8	-0.002
694.056	-0.0031
694.313	-0.0032
694.568	-0.0015
694.824	-0.0017
695.08	-0.0012
695.336	-0.0009
695.592	-0.0014
695.847	-0.0004
696.103	-0.0002
696.359	0.0003
696.614	0.0003
696.869	-0.0006
697.125	-0.0008
697.38	-0.0016
697.635	-0.0012
697.891	-0.0001
698.146	-0.0008
698.401	0
698.656	-0.0008
698.911	0.0008
699.166	-0.0002
699.42	0.0004
699.675	0.0006
699.93	0.0002
700.185	0.0013
700.439	0.0009
700.694	0.0009
700.948	0.0008
701.203	0.001
701.457	-0.0001
701.711	0.0003
701.965	-0.0007
702.22	-0.0003
702.474	-0.0007
702.728	-0.0008
702.982	-0.0004
703.236	-0.0019
703.49	-0.0009
703.743	-0.0021
703.997	-0.0016
704.251	-0.0021
704.504	0.0005
704.758	-0.0001
705.012	0.0004
705.265	0.001
705.518	-0.0005
705.772	-0.0002
706.025	-0.0002
706.278	-0.0002
706.531	-0.0009
706.785	-0.0017
707.038	-0.002
707.291	-0.0025
707.543	-0.0013
707.796	-0.0021
708.049	-0.0008
708.302	-0.0014
708.555	-0.0012
708.807	-0.0004
709.06	-0.0008
709.312	0.0004
709.565	-0.0001
709.817	0.0016
710.069	0.0005
710.322	0.0013
710.574	0.002
710.826	0.0011
711.078	0.0009
711.33	0.0011
711.582	0.001
711.834	0.0009
712.086	0.0016
712.338	0.0009
712.59	-0.0004
712.841	-0.0011
713.093	-0.0015
713.344	-0.0007
713.596	-0.0017
713.847	-0.0029
714.099	-0.003
714.35	-0.0017
714.601	-0.0025
714.853	-0.0036
715.104	-0.0028
715.355	-0.0024
715.606	-0.0009
715.857	-0.0007
716.108	-0.0011
716.359	-0.0004
716.609	-0.0015
716.86	-0.0003
717.111	-0.0006
717.361	-0.0012
717.612	-0.0004
717.863	-0.0003
718.113	0.0007
718.363	0.0018
718.614	-0.0002
718.864	0.0012
719.114	0.0005
719.364	-0.0002
719.614	-0.0004
719.865	-0.0009
720.114	0
720.364	-0.0002
720.614	-0.0009
720.864	-0.0014
721.114	-0.0017
721.364	-0.0027
721.613	-0.0022
721.863	-0.0026
722.112	-0.0018
722.362	-0.0019
722.611	-0.0011
722.86	-0.0012
723.11	0.0007
723.359	0.0008
723.608	0.0003
723.857	0.0023
724.106	0.0013
724.355	0.0002
724.604	0.0001
724.853	-0.0005
725.102	-0.0015
725.351	-0.0019
725.599	-0.0034
725.848	-0.0027
726.097	-0.0019
726.345	-0.002
726.594	-0.0021
726.842	-0.0016
727.09	-0.0017
727.339	-0.0016
727.587	-0.0026
727.835	-0.0032
728.083	-0.0037
728.331	-0.0038
728.579	-0.0027
728.827	-0.0027
729.075	-0.003
729.323	-0.0031
729.571	-0.0036
729.818	-0.0039
730.066	-0.0033
730.314	-0.0031
730.561	-0.0031
730.809	-0.0036
731.056	-0.0031
731.303	-0.0035
731.551	-0.0033
731.798	-0.0035
732.045	-0.0021
732.292	-0.0035
732.539	-0.0023
732.786	-0.0031
733.033	-0.0032
733.28	-0.003
733.527	-0.0034
733.774	-0.0031
734.021	-0.0025
734.267	-0.0023
734.514	-0.0018
734.76	-0.0019
735.007	-0.002
735.253	-0.0006
735.5	0.0015
735.746	0.0015
735.992	0.0014
736.238	0.0007
736.485	0.0007
736.731	0.0011
736.977	-0.0003
737.223	-0.0009
737.469	-0.0011
737.715	-0.0007
737.96	-0.0002
738.206	-0.0007
738.452	-0.0007
738.697	-0.0015
738.943	-0.0019
739.189	-0.0003
739.434	-0.0009
739.679	-0.0006
739.925	0.0007
740.17	0.0017
740.415	0.0009
740.66	0.0014
740.906	0.0011
741.151	0.0009
741.396	-0.0003
741.641	-0.0007
741.886	0.0003
742.13	0.0004
742.375	0.0011
742.62	-0.0001
742.865	0
743.109	0.0006
743.354	-0.0005
743.598	-0.0005
743.843	-0.0018
744.087	-0.0025
744.331	-0.002
744.576	-0.0017
744.82	-0.0012
745.064	-0.0007
745.308	-0.0013
745.552	-0.0013
745.796	-0.0017
746.04	-0.0014
746.284	-0.0017
746.528	-0.0016
746.771	-0.0019
747.015	-0.0015
747.259	-0.0024
747.502	-0.0016
747.746	-0.002
747.989	-0.0023
748.233	-0.0002
748.476	-0.0014
748.719	-0.0006
748.963	-0.0007
749.206	-0.0004
749.449	-0.0004
749.692	-0.0004
749.935	-0.0008
750.178	-0.001
750.421	-0.0018
750.664	-0.0011
750.906	-0.0012
751.149	-0.0012
751.392	-0.0011
751.635	-0.001
751.877	-0.0009
752.12	-0.0016
752.362	-0.0005
752.604	-0.0006
752.847	-0.0002
753.089	-0.001
753.331	-0.0011
753.573	-0.0012
753.816	-0.0011
754.058	-0.0011
754.3	-0.0011
754.542	0.0002
754.783	0.0001
755.025	0.0001
755.267	0.0003
755.509	0.0005
755.75	-0.0005
755.992	0.0007
756.234	0.0003
756.475	0.0009
756.716	0.001
756.958	0.0001
757.199	0
757.44	0.0005
757.682	0.0003
757.923	0.0006
758.164	-0
758.405	-0.0002
758.646	-0.0007
758.887	-0.0011
759.128	-0.0011
759.369	-0.002
759.609	-0.0018
759.85	-0.0008
760.091	-0.0011
760.331	-0.0004
760.572	-0.0005
760.812	-0.0004
761.053	-0.0005
761.293	0.0008
761.533	0.0007
761.774	-0.0002
762.014	0.0004
762.254	-0
762.494	0.0012
762.734	0.0005
762.974	0.0004
763.214	0.0005
763.454	0.0005
763.694	0.0007
763.933	0.0019
764.173	0.0029
764.413	0.0029
764.652	0.0005
764.892	0.0005
765.131	0.0006
765.371	-0.0002
765.61	-0.0015
765.849	-0.0025
766.089	-0.0035
766.328	-0.0027
766.567	-0.0036
766.806	-0.0036
767.045	-0.005
767.284	-0.0024
767.523	-0.0031
767.762	-0.0037
768.001	-0.0021
768.239	-0.0019
768.478	-0.0029
768.717	-0.0029
768.955	-0.0038
769.194	-0.003
769.432	-0.0034
769.671	-0.0027
769.909	-0.0022
770.148	-0.0022
770.386	-0.0018
770.624	-0.0025
770.862	-0.0025
771.1	-0.0028
771.338	-0.0023
771.576	-0.0015
771.814	-0.0009
772.052	-0.001
772.29	-0.0002
772.528	-0.0002
772.765	-0.0014
773.003	-0.0004
773.24	-0.0004
773.478	-0.0003
773.716	0.0014
773.953	0.0013
774.19	0.0013
774.428	0.0024
774.665	0.002
774.902	0.0027
775.139	0.0024
775.376	0.0006
775.613	0.0004
775.85	0.0001
776.087	0.0003
776.324	-0.001
776.561	-0.0022
776.798	-0.0014
777.034	-0.0018
777.271	-0.0013
777.508	-0.0011
777.744	0.0006
777.981	-0.0004
778.217	-0.0014
778.454	-0.0017
778.69	-0.0016
778.926	-0.0015
779.162	-0.0017
779.399	0.0001
779.635	-0.0012
779.871	-0.0012
780.107	-0.0018
780.343	-0.0033
780.579	-0.0026
780.814	-0.002
781.05	-0.002
781.286	-0.0025
781.522	-0.0025
781.757	-0.0032
781.993	-0.0022
782.228	-0.0029
782.464	-0.0018
782.699	-0.0011
782.934	-0.0021
783.17	-0.0024
783.405	-0.0012
783.64	-0.0009
783.875	-0.0025
784.11	-0.0024
784.345	-0.0017
784.58	-0.0013
784.815	-0.0018
785.05	-0.0015
785.285	-0.0016
785.52	-0.0017
785.754	-0.0012
785.989	-0.0004
786.223	0.0008
786.458	0.0008
786.692	0.0023
786.927	0.0035
787.161	0.0032
787.396	0.0031
787.63	0.0024
787.864	0.0008
788.098	-0.001
788.332	-0.0004
788.566	-0.0012
788.8	-0.0014
789.034	-0.0006
789.268	-0.0023
789.502	-0.0025
789.736	-0.0021
789.969	-0.0014
790.203	-0.0015
790.437	-0.0011
790.67	-0.0008
790.904	0.0004
791.137	0.0002
791.37	0.0003
791.604	0.0002
791.837	0.0011
792.07	0.0022
792.303	0.0021
792.537	0.0032
792.77	0.0031
793.003	0.0022
793.236	0.0015
793.469	0.0014
793.701	0.0007
793.934	0.0013
794.167	0.0001
794.4	-0.0001
794.632	-0.0008
794.865	-0.0017
795.097	-0.0024
795.33	-0.0016
795.562	-0.0015
795.795	-0.0015
796.027	-0.0014
796.259	0.0001
796.491	-0.0001
796.724	0.0009
796.956	0.0005
797.188	0.0011
797.42	0.0002
797.652	0.0008
797.883	0.0012
798.115	0.0023
798.347	0.0017
798.579	0.0011
798.81	0.0002
799.042	0.0014
799.274	0.0013
799.505	0.0015
799.737	0.0016
799.968	0.0013
800.199	0.0013
800.431	0.0014
800.662	0.0009
800.893	0.0013
801.124	0.0009
801.355	0.0008
801.586	0.001
801.817	0.0019
802.048	0.002
802.279	0.0011
802.51	0.0015
802.741	0.0022
802.971	0.0032
803.202	0.0017
803.433	0.0014
803.663	0.002
803.894	0.0013
804.124	0.0015
804.354	0.0022
804.585	0.0029
804.815	0.0027
805.045	0.0049
805.275	0.0034
805.506	0.0643
805.736	-0.1668
805.966	-0.3029
806.196	-0.1973
