Data from 01 0.4 mM K2Cr2O7 1 M H2SO4_Absorbance_20-03-56-810.txt Node
Date: Tue Dec 07 20:03:56 EST 2021
User: kwabilab-user
Spectrometer: HDX00518
Trigger mode: 0
Integration Time (sec): 5.000000E-2
Scans to average: 50
Nonlinearity correction enabled: false
Boxcar width: 0
Storing dark spectrum: false
XAxis mode: Wavelengths
Number of Pixels in Spectrum: 2068
>>>>>Begin Spectral Data<<<<<
195.27	0.1785
195.642	0.264
196.014	0.1038
196.386	0.0388
196.758	0.0577
197.129	0.0459
197.501	0.0699
197.872	0.1132
198.244	0.1322
198.615	0.1426
198.986	0.1306
199.357	0.1397
199.728	0.1469
200.099	0.1496
200.47	0.1322
200.841	0.1496
201.212	0.142
201.582	0.1471
201.953	0.1569
202.323	0.1481
202.694	0.1386
203.064	0.1417
203.434	0.1441
203.804	0.1512
204.174	0.1407
204.544	0.1452
204.914	0.1513
205.284	0.1491
205.653	0.1555
206.023	0.1501
206.393	0.1413
206.762	0.1412
207.131	0.1402
207.501	0.159
207.87	0.1814
208.239	0.1552
208.608	0.1489
208.977	0.1699
209.346	0.17
209.715	0.1725
210.083	0.1708
210.452	0.1606
210.82	0.1872
211.189	0.1701
211.557	0.1703
211.925	0.1833
212.294	0.1963
212.662	0.2015
213.03	0.1955
213.398	0.1874
213.766	0.1987
214.133	0.2209
214.501	0.2285
214.869	0.233
215.236	0.2515
215.604	0.2703
215.971	0.2787
216.338	0.283
216.705	0.3224
217.072	0.3425
217.439	0.3397
217.806	0.3821
218.173	0.4
218.54	0.4206
218.907	0.4626
219.273	0.4861
219.64	0.5345
220.006	0.5851
220.373	0.5983
220.739	0.6483
221.105	0.6918
221.471	0.7138
221.837	0.7461
222.203	0.7924
222.569	0.7964
222.935	0.8429
223.3	0.8697
223.666	0.8911
224.031	0.9323
224.397	0.9356
224.762	0.948
225.127	0.9725
225.493	0.9806
225.858	0.9892
226.223	0.9893
226.588	0.9962
226.952	1.0064
227.317	1.0198
227.682	1.0135
228.046	1.01
228.411	1.009
228.775	1.0088
229.14	0.9965
229.504	0.9976
229.868	0.9886
230.232	0.9824
230.596	0.9783
230.96	0.9743
231.324	0.9625
231.688	0.9579
232.052	0.9472
232.415	0.9395
232.779	0.9373
233.142	0.9275
233.505	0.9175
233.869	0.9103
234.232	0.9025
234.595	0.8947
234.958	0.8885
235.321	0.8768
235.684	0.8703
236.047	0.8603
236.409	0.8556
236.772	0.8485
237.134	0.8417
237.497	0.8358
237.859	0.8303
238.222	0.8242
238.584	0.8164
238.946	0.8111
239.308	0.809
239.67	0.799
240.032	0.8
240.393	0.7939
240.755	0.7844
241.117	0.784
241.478	0.7801
241.84	0.7767
242.201	0.7728
242.562	0.7709
242.924	0.7643
243.285	0.7632
243.646	0.7593
244.007	0.7611
244.368	0.7574
244.728	0.7546
245.089	0.7515
245.45	0.7518
245.81	0.7495
246.171	0.7511
246.531	0.7474
246.891	0.7468
247.252	0.7437
247.612	0.7441
247.972	0.7441
248.332	0.7413
248.692	0.7417
249.051	0.7413
249.411	0.7424
249.771	0.739
250.13	0.7399
250.49	0.7404
250.849	0.7411
251.208	0.7397
251.568	0.7382
251.927	0.7391
252.286	0.7394
252.645	0.7403
253.004	0.7387
253.363	0.738
253.721	0.739
254.08	0.7387
254.439	0.7389
254.797	0.7368
255.155	0.7361
255.514	0.7394
255.872	0.7384
256.23	0.7391
256.588	0.7386
256.946	0.7371
257.304	0.7392
257.662	0.7372
258.02	0.7393
258.377	0.7363
258.735	0.7361
259.093	0.7371
259.45	0.738
259.807	0.7363
260.165	0.7362
260.522	0.7343
260.879	0.7339
261.236	0.7362
261.593	0.7338
261.95	0.731
262.306	0.7343
262.663	0.7303
263.02	0.7306
263.376	0.7301
263.733	0.7318
264.089	0.73
264.445	0.7283
264.802	0.728
265.158	0.7257
265.514	0.7268
265.87	0.7237
266.226	0.724
266.581	0.7247
266.937	0.7215
267.293	0.7225
267.648	0.7204
268.004	0.7198
268.359	0.7178
268.714	0.7159
269.07	0.7161
269.425	0.7148
269.78	0.7135
270.135	0.7125
270.49	0.7111
270.844	0.7101
271.199	0.7099
271.554	0.7065
271.908	0.7058
272.263	0.7049
272.617	0.7039
272.972	0.7015
273.326	0.7004
273.68	0.6972
274.034	0.6965
274.388	0.6933
274.742	0.6924
275.096	0.6908
275.45	0.6882
275.803	0.6849
276.157	0.683
276.51	0.6792
276.864	0.6796
277.217	0.6758
277.571	0.6703
277.924	0.6685
278.277	0.6687
278.63	0.6657
278.983	0.6621
279.336	0.6581
279.688	0.6562
280.041	0.6519
280.394	0.6472
280.746	0.6439
281.099	0.6394
281.451	0.6357
281.803	0.6316
282.156	0.627
282.508	0.6214
282.86	0.6168
283.212	0.6121
283.564	0.6085
283.916	0.602
284.267	0.5985
284.619	0.5935
284.971	0.5877
285.322	0.5828
285.673	0.5768
286.025	0.5721
286.376	0.5654
286.727	0.5599
287.078	0.5525
287.429	0.5481
287.78	0.5408
288.131	0.5337
288.482	0.5284
288.833	0.5227
289.183	0.5154
289.534	0.5093
289.884	0.5027
290.235	0.4966
290.585	0.4876
290.935	0.4828
291.285	0.475
291.635	0.4698
291.985	0.4621
292.335	0.4561
292.685	0.4494
293.035	0.4432
293.384	0.4354
293.734	0.4289
294.083	0.4212
294.433	0.415
294.782	0.4081
295.131	0.4018
295.48	0.396
295.829	0.3895
296.179	0.3826
296.527	0.3767
296.876	0.3704
297.225	0.3653
297.574	0.3579
297.922	0.3518
298.271	0.3457
298.619	0.3398
298.968	0.3345
299.316	0.3291
299.664	0.3245
300.012	0.3189
300.36	0.3129
300.708	0.3079
301.056	0.3035
301.404	0.2983
301.752	0.2934
302.099	0.2893
302.447	0.2851
302.794	0.2803
303.142	0.2764
303.489	0.2717
303.836	0.2677
304.183	0.2647
304.531	0.2606
304.878	0.2573
305.224	0.2533
305.571	0.2505
305.918	0.248
306.265	0.2444
306.611	0.2425
306.958	0.2393
307.304	0.237
307.651	0.2352
307.997	0.2324
308.343	0.231
308.689	0.2288
309.035	0.2271
309.381	0.2262
309.727	0.2235
310.073	0.2227
310.419	0.2212
310.764	0.2201
311.11	0.2196
311.455	0.2189
311.801	0.2167
312.146	0.2168
312.491	0.2168
312.837	0.2162
313.182	0.2158
313.527	0.216
313.872	0.2159
314.216	0.2163
314.561	0.2156
314.906	0.2169
315.251	0.2169
315.595	0.217
315.94	0.2183
316.284	0.2188
316.628	0.2192
316.972	0.2196
317.317	0.2217
317.661	0.2225
318.005	0.2235
318.348	0.2254
318.692	0.2264
319.036	0.2276
319.38	0.2289
319.723	0.2309
320.067	0.2323
320.41	0.2342
320.754	0.2364
321.097	0.2383
321.44	0.2406
321.783	0.2422
322.126	0.2444
322.469	0.2469
322.812	0.2493
323.155	0.2514
323.498	0.2544
323.84	0.2568
324.183	0.2595
324.525	0.2617
324.868	0.2643
325.21	0.2671
325.552	0.27
325.894	0.272
326.236	0.2755
326.578	0.2779
326.92	0.2804
327.262	0.2823
327.604	0.2854
327.946	0.2886
328.287	0.2918
328.629	0.2943
328.97	0.2972
329.312	0.3007
329.653	0.3029
329.994	0.3067
330.335	0.3097
330.676	0.3128
331.017	0.3149
331.358	0.3191
331.699	0.3216
332.04	0.325
332.38	0.3269
332.721	0.3312
333.061	0.3335
333.402	0.3369
333.742	0.3402
334.083	0.3429
334.423	0.345
334.763	0.3471
335.103	0.3503
335.443	0.3531
335.783	0.3557
336.123	0.3576
336.462	0.3603
336.802	0.3628
337.141	0.3652
337.481	0.3677
337.82	0.37
338.16	0.3724
338.499	0.3749
338.838	0.3774
339.177	0.3801
339.516	0.3824
339.855	0.385
340.194	0.3873
340.533	0.3892
340.872	0.3916
341.21	0.3938
341.549	0.3947
341.887	0.3975
342.226	0.3984
342.564	0.3987
342.902	0.4004
343.24	0.4017
343.578	0.4021
343.916	0.4037
344.254	0.4048
344.592	0.4046
344.93	0.4057
345.268	0.4056
345.605	0.4069
345.943	0.4074
346.28	0.4081
346.618	0.4091
346.955	0.4097
347.292	0.4101
347.629	0.4108
347.966	0.4116
348.303	0.4119
348.64	0.4117
348.977	0.4119
349.314	0.4126
349.65	0.4126
349.987	0.4123
350.324	0.4127
350.66	0.4119
350.996	0.4122
351.333	0.411
351.669	0.4096
352.005	0.4089
352.341	0.4077
352.677	0.4064
353.013	0.4046
353.349	0.404
353.685	0.4015
354.02	0.4005
354.356	0.3985
354.691	0.3959
355.027	0.3949
355.362	0.3931
355.697	0.3919
356.033	0.3908
356.368	0.3887
356.703	0.3882
357.038	0.3855
357.373	0.3843
357.707	0.3829
358.042	0.3815
358.377	0.3799
358.711	0.3779
359.046	0.3758
359.38	0.3737
359.715	0.372
360.049	0.3697
360.383	0.3677
360.717	0.3657
361.051	0.3631
361.385	0.3616
361.719	0.3578
362.053	0.3553
362.387	0.3522
362.72	0.3486
363.054	0.3455
363.387	0.3422
363.721	0.3392
364.054	0.3361
364.387	0.3325
364.721	0.3295
365.054	0.3267
365.387	0.3242
365.72	0.3211
366.053	0.3179
366.385	0.3144
366.718	0.3127
367.051	0.3096
367.383	0.3072
367.716	0.3045
368.048	0.302
368.381	0.3003
368.713	0.2975
369.045	0.2956
369.377	0.2924
369.709	0.2901
370.041	0.2876
370.373	0.2855
370.705	0.2817
371.037	0.279
371.368	0.2758
371.7	0.2736
372.031	0.2704
372.363	0.2666
372.694	0.2638
373.025	0.2597
373.356	0.2564
373.688	0.2528
374.019	0.2491
374.35	0.2457
374.68	0.2421
375.011	0.2378
375.342	0.2345
375.673	0.232
376.003	0.2287
376.334	0.2254
376.664	0.2213
376.995	0.219
377.325	0.2161
377.655	0.214
377.985	0.2118
378.315	0.2089
378.645	0.2061
378.975	0.2037
379.305	0.2009
379.635	0.1993
379.964	0.1965
380.294	0.1944
380.623	0.1923
380.953	0.1901
381.282	0.1877
381.611	0.1849
381.941	0.1825
382.27	0.1803
382.599	0.1775
382.928	0.1753
383.257	0.1722
383.585	0.1702
383.914	0.1668
384.243	0.1647
384.571	0.1612
384.9	0.1578
385.228	0.1549
385.557	0.1531
385.885	0.15
386.213	0.1463
386.541	0.1439
386.869	0.1411
387.197	0.1376
387.525	0.1357
387.853	0.1331
388.181	0.1304
388.508	0.1283
388.836	0.1262
389.164	0.1236
389.491	0.1218
389.818	0.1196
390.146	0.1175
390.473	0.1147
390.8	0.1135
391.127	0.1118
391.454	0.1101
391.781	0.1085
392.108	0.106
392.435	0.1045
392.761	0.1027
393.088	0.1021
393.415	0.0994
393.741	0.0991
394.067	0.0969
394.394	0.0959
394.72	0.0946
395.046	0.0931
395.372	0.091
395.698	0.09
396.024	0.0885
396.35	0.0864
396.676	0.086
397.001	0.0844
397.327	0.0825
397.653	0.0804
397.978	0.0795
398.303	0.0775
398.629	0.0765
398.954	0.0755
399.279	0.0744
399.604	0.0736
399.929	0.072
400.254	0.0703
400.579	0.0698
400.904	0.0682
401.229	0.0673
401.553	0.0659
401.878	0.0651
402.202	0.0646
402.527	0.0638
402.851	0.0633
403.175	0.0621
403.5	0.0619
403.824	0.0616
404.148	0.0612
404.472	0.0603
404.796	0.059
405.119	0.0584
405.443	0.0583
405.767	0.0581
406.09	0.0573
406.414	0.0579
406.737	0.0572
407.061	0.0567
407.384	0.0564
407.707	0.0557
408.03	0.0562
408.353	0.0561
408.676	0.0556
408.999	0.0555
409.322	0.0556
409.645	0.0557
409.968	0.0553
410.29	0.0551
410.613	0.0544
410.935	0.0551
411.258	0.0554
411.58	0.0544
411.902	0.0553
412.224	0.0555
412.546	0.0547
412.868	0.0551
413.19	0.0552
413.512	0.0551
413.834	0.0558
414.156	0.0562
414.477	0.0554
414.799	0.0554
415.121	0.0553
415.442	0.0555
415.763	0.056
416.085	0.056
416.406	0.0563
416.727	0.0565
417.048	0.0564
417.369	0.0567
417.69	0.0567
418.011	0.0572
418.331	0.0574
418.652	0.0574
418.973	0.0575
419.293	0.0581
419.614	0.0581
419.934	0.0578
420.254	0.0586
420.574	0.0579
420.895	0.0589
421.215	0.0582
421.535	0.0584
421.855	0.0592
422.174	0.0585
422.494	0.0593
422.814	0.06
423.134	0.0601
423.453	0.0598
423.773	0.06
424.092	0.06
424.411	0.0601
424.731	0.061
425.05	0.0611
425.369	0.0613
425.688	0.0617
426.007	0.0616
426.326	0.0626
426.644	0.0632
426.963	0.0629
427.282	0.0629
427.6	0.0631
427.919	0.0634
428.237	0.0631
428.556	0.0643
428.874	0.0636
429.192	0.0637
429.51	0.0641
429.828	0.0642
430.146	0.0648
430.464	0.0648
430.782	0.0645
431.1	0.0655
431.418	0.0652
431.735	0.0652
432.053	0.0653
432.37	0.0661
432.688	0.0652
433.005	0.0659
433.322	0.0662
433.639	0.0661
433.957	0.0665
434.274	0.0664
434.591	0.0668
434.907	0.0667
435.224	0.0664
435.541	0.0668
435.858	0.0677
436.174	0.0682
436.491	0.0678
436.807	0.0682
437.124	0.0676
437.44	0.0671
437.756	0.0677
438.072	0.0676
438.388	0.0687
438.704	0.0682
439.02	0.0682
439.336	0.0682
439.652	0.0686
439.968	0.0685
440.283	0.068
440.599	0.0684
440.914	0.0688
441.23	0.0687
441.545	0.0685
441.86	0.0686
442.175	0.0693
442.491	0.0686
442.806	0.0685
443.121	0.0696
443.435	0.0684
443.75	0.0691
444.065	0.0685
444.38	0.0696
444.694	0.0693
445.009	0.0694
445.323	0.0688
445.638	0.069
445.952	0.0693
446.266	0.0692
446.58	0.0697
446.894	0.0692
447.208	0.0693
447.522	0.0695
447.836	0.068
448.15	0.0684
448.464	0.0686
448.777	0.0688
449.091	0.0684
449.404	0.0693
449.718	0.0695
450.031	0.0689
450.345	0.0678
450.658	0.0685
450.971	0.0679
451.284	0.0675
451.597	0.0681
451.91	0.0684
452.223	0.0682
452.535	0.0676
452.848	0.0678
453.161	0.0676
453.473	0.067
453.786	0.0675
454.098	0.0669
454.411	0.0668
454.723	0.0669
455.035	0.0662
455.347	0.0672
455.659	0.0672
455.971	0.0672
456.283	0.0669
456.595	0.0664
456.907	0.066
457.218	0.0666
457.53	0.0661
457.841	0.0654
458.153	0.0654
458.464	0.0656
458.776	0.064
459.087	0.0649
459.398	0.0652
459.709	0.0642
460.02	0.0643
460.331	0.0632
460.642	0.064
460.953	0.0626
461.263	0.0636
461.574	0.0635
461.885	0.0626
462.195	0.0626
462.506	0.0619
462.816	0.0619
463.126	0.0606
463.437	0.0606
463.747	0.0596
464.057	0.0607
464.367	0.0605
464.677	0.0604
464.987	0.0602
465.296	0.0597
465.606	0.0591
465.916	0.0581
466.225	0.0584
466.535	0.0584
466.844	0.0574
467.154	0.0577
467.463	0.0574
467.772	0.0579
468.081	0.0571
468.39	0.0566
468.699	0.0572
469.008	0.0569
469.317	0.0561
469.626	0.0555
469.935	0.0559
470.243	0.0553
470.552	0.0553
470.86	0.0551
471.169	0.0536
471.477	0.0544
471.785	0.0542
472.093	0.0539
472.402	0.0532
472.71	0.0525
473.018	0.052
473.326	0.0514
473.633	0.0516
473.941	0.0514
474.249	0.051
474.556	0.0503
474.864	0.0505
475.171	0.0497
475.479	0.0502
475.786	0.0493
476.094	0.0495
476.401	0.0487
476.708	0.0482
477.015	0.0483
477.322	0.0476
477.629	0.048
477.936	0.0467
478.242	0.0464
478.549	0.0465
478.856	0.0461
479.162	0.0464
479.469	0.0453
479.775	0.0453
480.081	0.0442
480.388	0.0446
480.694	0.044
481	0.0441
481.306	0.0443
481.612	0.0431
481.918	0.043
482.224	0.0427
482.53	0.0425
482.835	0.0419
483.141	0.0402
483.446	0.0401
483.752	0.0405
484.057	0.0404
484.363	0.0397
484.668	0.039
484.973	0.0392
485.278	0.038
485.583	0.0375
485.888	0.0376
486.193	0.0376
486.498	0.0376
486.803	0.0375
487.107	0.0371
487.412	0.036
487.717	0.0358
488.021	0.0364
488.325	0.0346
488.63	0.0346
488.934	0.0348
489.238	0.0348
489.542	0.0345
489.846	0.0333
490.15	0.0345
490.454	0.0334
490.758	0.0339
491.062	0.0327
491.366	0.0321
491.669	0.0324
491.973	0.032
492.276	0.0317
492.58	0.0303
492.883	0.0306
493.186	0.0304
493.489	0.0296
493.792	0.0306
494.096	0.0307
494.399	0.0293
494.701	0.0298
495.004	0.0286
495.307	0.0283
495.61	0.0273
495.912	0.0273
496.215	0.0268
496.517	0.0265
496.82	0.0262
497.122	0.0271
497.424	0.0262
497.727	0.0251
498.029	0.0263
498.331	0.0259
498.633	0.0257
498.935	0.0251
499.237	0.0249
499.538	0.0237
499.84	0.0237
500.142	0.024
500.443	0.0232
500.745	0.0238
501.046	0.0233
501.348	0.022
501.649	0.0226
501.95	0.0219
502.251	0.0218
502.552	0.0208
502.853	0.02
503.154	0.0211
503.455	0.0206
503.756	0.0202
504.057	0.0206
504.357	0.02
504.658	0.0197
504.958	0.02
505.259	0.02
505.559	0.0194
505.859	0.019
506.16	0.0189
506.46	0.0185
506.76	0.0188
507.06	0.0173
507.36	0.0182
507.66	0.0183
507.96	0.0173
508.259	0.0169
508.559	0.0162
508.859	0.0165
509.158	0.0168
509.457	0.0161
509.757	0.0168
510.056	0.0161
510.355	0.015
510.655	0.014
510.954	0.0147
511.253	0.0153
511.552	0.0151
511.851	0.0141
512.149	0.0133
512.448	0.0138
512.747	0.0139
513.045	0.0131
513.344	0.014
513.642	0.0143
513.941	0.0133
514.239	0.0133
514.537	0.0121
514.836	0.0134
515.134	0.0114
515.432	0.0125
515.73	0.0127
516.028	0.0108
516.326	0.0111
516.623	0.0112
516.921	0.0107
517.219	0.0119
517.516	0.0116
517.814	0.0108
518.111	0.0114
518.409	0.0113
518.706	0.0109
519.003	0.0098
519.3	0.0092
519.597	0.0098
519.894	0.0098
520.191	0.0098
520.488	0.0097
520.785	0.0086
521.082	0.0094
521.378	0.0082
521.675	0.0073
521.971	0.0087
522.268	0.009
522.564	0.0089
522.861	0.0088
523.157	0.0077
523.453	0.0076
523.749	0.0079
524.045	0.009
524.341	0.0079
524.637	0.007
524.933	0.0065
525.229	0.0073
525.524	0.0067
525.82	0.0078
526.115	0.0069
526.411	0.0062
526.706	0.0064
527.002	0.0065
527.297	0.0053
527.592	0.0072
527.887	0.0072
528.182	0.0071
528.477	0.0074
528.772	0.005
529.067	0.0066
529.362	0.0057
529.657	0.0057
529.951	0.0053
530.246	0.0058
530.54	0.0045
530.835	0.0045
531.129	0.0049
531.423	0.0058
531.718	0.0046
532.012	0.0051
532.306	0.0046
532.6	0.0048
532.894	0.0044
533.188	0.0051
533.482	0.0036
533.775	0.0049
534.069	0.0038
534.363	0.0024
534.656	0.0035
534.95	0.0033
535.243	0.0038
535.536	0.0037
535.83	0.0047
536.123	0.0028
536.416	0.0031
536.709	0.0038
537.002	0.0038
537.295	0.0024
537.588	0.0035
537.881	0.0023
538.173	0.0035
538.466	0.0026
538.759	0.0022
539.051	0.0016
539.344	0.003
539.636	0.0029
539.928	0.0022
540.22	0.0026
540.513	0.0026
540.805	0.0029
541.097	0.0031
541.389	0.0023
541.681	0.002
541.972	0.0026
542.264	0.0011
542.556	0.0018
542.847	0.0015
543.139	0.0017
543.431	0.0027
543.722	0.0023
544.013	0.0034
544.305	0.003
544.596	0.0028
544.887	0.0019
545.178	0.0019
545.469	0.0024
545.76	0.0014
546.051	0.0017
546.342	0.0017
546.632	0.0013
546.923	0.0022
547.214	0.0014
547.504	0.0017
547.795	0.0023
548.085	0.0021
548.375	0.0014
548.666	0.0017
548.956	0.0011
549.246	0.0015
549.536	0.0011
549.826	0.0013
550.116	0.0021
550.406	0.001
550.695	0.0021
550.985	0.001
551.275	0.0012
551.564	0.0003
551.854	0.0016
552.143	0.0004
552.433	0.002
552.722	0.0011
553.011	0.0004
553.3	0.0017
553.589	0.0011
553.879	0.0006
554.167	0.0013
554.456	0.0005
554.745	-0.0006
555.034	0.0001
555.323	-0.0006
555.611	0
555.9	0.0016
556.188	0.0009
556.477	0.0012
556.765	-0.0006
557.053	-0.0004
557.342	-0.0011
557.63	0.0006
557.918	-0.0002
558.206	-0.0003
558.494	0.0011
558.782	0.0004
559.069	-0.0007
559.357	0
559.645	-0.0015
559.932	-0.0008
560.22	0.0009
560.507	-0.0003
560.795	-0.0003
561.082	-0.0004
561.37	-0.0001
561.657	-0.0003
561.944	0.0006
562.231	-0.0001
562.518	-0.0013
562.805	0.0002
563.092	0.0002
563.379	0.0012
563.665	0.0004
563.952	0.0002
564.239	0.0013
564.525	0.0009
564.811	0.0006
565.098	0.0003
565.384	0.0008
565.67	0.0005
565.957	-0.0007
566.243	0.0011
566.529	-0.0005
566.815	0.0011
567.101	0.0005
567.387	-0.0005
567.672	-0.0001
567.958	-0.0001
568.244	0.0006
568.529	-0.0001
568.815	-0.0001
569.1	0.0006
569.386	-0.0005
569.671	0
569.956	-0.0001
570.242	-0.0001
570.527	-0.0002
570.812	0.0001
571.097	0.0002
571.382	-0.0002
571.666	-0.0002
571.951	-0.0002
572.236	0.0003
572.521	-0
572.805	0.0003
573.09	-0.0001
573.374	-0.0006
573.659	-0.0007
573.943	0.0005
574.227	-0.0002
574.511	0.0007
574.795	0.0002
575.079	-0.0002
575.363	-0.0001
575.647	0.0012
575.931	-0.0001
576.215	0.0002
576.499	-0.0003
576.782	0
577.066	-0.0001
577.349	0.0003
577.633	0.0006
577.916	0.0008
578.2	0.0011
578.483	0.0009
578.766	0.0001
579.049	0.0012
579.332	0.0002
579.615	-0.0006
579.898	0.0007
580.181	0.0005
580.464	-0.0001
580.746	-0.0006
581.029	0.0003
581.312	-0.0008
581.594	-0.0001
581.877	0.0004
582.159	0.0015
582.441	0
582.724	0
583.006	0.0002
583.288	-0.0006
583.57	-0.0012
583.852	-0.0008
584.134	-0.0016
584.416	-0.0003
584.697	-0.0003
584.979	0.0003
585.261	0.0001
585.542	0.0003
585.824	0.0005
586.105	0.0007
586.387	0.0004
586.668	-0.0004
586.949	0.0008
587.231	-0.0004
587.512	0
587.793	0.0004
588.074	0.0014
588.355	0.0005
588.636	0.0012
588.916	0.0003
589.197	0.0014
589.478	0.0008
589.758	0.0005
590.039	-0.0003
590.319	0.0005
590.6	0
590.88	0.0003
591.16	-0.0007
591.441	0.0004
591.721	-0.0002
592.001	0.0001
592.281	0
592.561	-0.0001
592.841	-0.0007
593.12	-0.0002
593.4	-0.0001
593.68	-0
593.959	0.0008
594.239	0.0013
594.518	-0.0008
594.798	-0.0005
595.077	0.0008
595.356	0.0008
595.636	0.0004
595.915	0.001
596.194	0.0002
596.473	0.0006
596.752	-0.0007
597.031	-0.0001
597.31	-0.0002
597.588	0.0001
597.867	-0.0005
598.146	0.0005
598.424	-0.0001
598.703	-0.0003
598.981	0.0004
599.259	0.0013
599.538	0.0008
599.816	0.0007
600.094	-0.0001
600.372	0.001
600.65	0.001
600.928	0.0011
601.206	0.0011
601.484	0.0013
601.762	0.0016
602.04	0.0005
602.317	0.0008
602.595	-0.0005
602.872	0.0003
603.15	-0.0005
603.427	-0.0002
603.704	-0
603.982	0.0002
604.259	0
604.536	0.0005
604.813	0.0004
605.09	-0.0001
605.367	-0.0002
605.644	-0.0004
605.921	-0.0001
606.197	0.0001
606.474	0.0003
606.751	0.0003
607.027	0.0001
607.304	-0.0001
607.58	0.0007
607.856	0.0002
608.133	0.0015
608.409	0.0006
608.685	-0.0006
608.961	0.0003
609.237	0.0003
609.513	-0.0001
609.789	0.0002
610.065	-0.001
610.341	0.0005
610.616	0.0005
610.892	0.0003
611.167	0.0001
611.443	-0.0005
611.718	-0.001
611.994	-0.0012
612.269	-0.0002
612.544	-0.0001
612.819	-0.0002
613.095	0.0011
613.37	0.0001
613.645	0.0001
613.919	0.0005
614.194	0.0002
614.469	-0.0004
614.744	-0.0003
615.019	-0
615.293	-0.0005
615.568	-0.0009
615.842	-0.0008
616.116	-0.001
616.391	-0.0021
616.665	0.0005
616.939	-0.0004
617.213	-0.0001
617.488	-0.0003
617.762	0.0007
618.035	-0.0002
618.309	-0.0002
618.583	0.001
618.857	0.0014
619.131	0.0008
619.404	0.0002
619.678	0.0002
619.951	-0.0006
620.225	-0.0004
620.498	-0.0004
620.771	0.0001
621.045	0.0009
621.318	-0.0001
621.591	0.0002
621.864	-0.0006
622.137	-0.0006
622.41	-0
622.683	-0.0008
622.956	0.0002
623.228	0.0003
623.501	-0.0005
623.774	0.0005
624.046	-0.0009
624.319	0.0003
624.591	-0.0006
624.863	-0.0002
625.136	-0.0009
625.408	-0.0001
625.68	-0
625.952	-0.0002
626.224	-0.0009
626.496	-0.0003
626.768	-0.0013
627.04	-0.0015
627.311	-0.0013
627.583	-0.0005
627.855	-0.0012
628.126	-0.001
628.398	0.0001
628.669	-0.001
628.941	-0.0019
629.212	-0.0022
629.483	-0.0008
629.755	-0.0005
630.026	-0.0024
630.297	-0.0026
630.568	-0.0025
630.839	-0.0025
631.11	-0.0026
631.38	-0.0027
631.651	-0.0033
631.922	-0.0019
632.192	-0.0027
632.463	-0.002
632.733	-0.0016
633.004	-0.0019
633.274	-0.0026
633.545	-0.0011
633.815	-0.0001
634.085	-0
634.355	-0.0012
634.625	0.0005
634.895	-0.001
635.165	-0.0026
635.435	-0.0016
635.705	-0.0012
635.974	-0.0016
636.244	-0.0015
636.514	-0.0006
636.783	-0.0011
637.053	0.0009
637.322	-0.0003
637.591	0.0003
637.861	0.0002
638.13	-0.0011
638.399	-0.0013
638.668	-0.0013
638.937	-0.0018
639.206	-0.0016
639.475	-0.0013
639.744	-0.0018
640.013	-0.0014
640.281	-0.0017
640.55	-0.0013
640.819	-0.0015
641.087	-0.0008
641.356	-0.0018
641.624	-0.0012
641.892	-0.0015
642.161	-0.0015
642.429	-0.0002
642.697	-0.001
642.965	-0
643.233	-0.0016
643.501	-0.0009
643.769	-0.001
644.037	-0.0011
644.305	-0.0009
644.572	-0.0011
644.84	-0.0011
645.108	0.0001
645.375	-0.0012
645.643	0.0003
645.91	-0.0009
646.177	0.0004
646.445	0.0012
646.712	0.0017
646.979	0.0015
647.246	0.0011
647.513	0.0013
647.78	0.0001
648.047	0.0006
648.314	-0.0001
648.58	0.0004
648.847	-0.0001
649.114	-0.0009
649.38	-0.0008
649.647	-0.0011
649.913	-0.0016
650.18	-0.0008
650.446	-0.0006
650.712	0.0005
650.978	0.0011
651.245	0.0015
651.511	0.0011
651.777	0.0011
652.043	0.0017
652.309	0.0004
652.574	0.0018
652.84	0.0011
653.106	-0.0004
653.371	-0.0001
653.637	-0.0001
653.903	0.0001
654.168	0.0014
654.433	0.0012
654.699	0.0006
654.964	0.0006
655.229	0.0002
655.494	0.0006
655.759	-0.0016
656.024	0.0005
656.289	-0
656.554	0.0014
656.819	-0.0005
657.084	0.0001
657.349	0.0003
657.613	0.0012
657.878	0.0006
658.142	0.0011
658.407	0.0014
658.671	0.0005
658.936	-0.001
659.2	-0.0009
659.464	-0.0016
659.728	-0.0012
659.992	-0.0007
660.256	-0.0006
660.52	0.0003
660.784	-0.0011
661.048	-0.0016
661.312	-0.0015
661.575	-0.0018
661.839	-0.0023
662.103	-0.0026
662.366	-0.0022
662.63	-0.0015
662.893	-0.0017
663.156	-0.0013
663.42	-0.0013
663.683	-0.0014
663.946	-0.0012
664.209	0.0002
664.472	0.0009
664.735	0.0004
664.998	0
665.261	0.0001
665.524	-0.0011
665.786	-0.0008
666.049	0.0002
666.312	-0.0008
666.574	-0.0011
666.837	-0.0025
667.099	-0.0027
667.361	-0.0025
667.624	-0.002
667.886	-0.0016
668.148	-0.0025
668.41	-0.0007
668.672	-0.0035
668.934	-0.0024
669.196	-0.0031
669.458	-0.0016
669.72	-0.0019
669.982	-0.0017
670.243	-0.001
670.505	-0.0012
670.766	-0.0002
671.028	0.001
671.289	0.0003
671.551	-0.0004
671.812	-0.0007
672.073	0.0005
672.334	0.0001
672.596	0.0009
672.857	-0.0001
673.118	-0.0007
673.379	-0.0011
673.639	-0.0033
673.9	-0.0014
674.161	-0.0025
674.422	-0.0025
674.682	-0.002
674.943	-0.0019
675.203	-0.0017
675.464	-0.0014
675.724	-0.0007
675.985	0
676.245	0.0004
676.505	0.0007
676.765	-0.0007
677.025	0
677.285	-0.0005
677.545	0.0013
677.805	0.001
678.065	0.0016
678.325	0.0011
678.585	0.0014
678.844	0.0015
679.104	0.0016
679.363	0.0011
679.623	0.0019
679.882	0.0026
680.142	0.0024
680.401	0.0016
680.66	0.0028
680.919	0.0013
681.178	0.0023
681.437	0.0022
681.696	0.0024
681.955	0.0027
682.214	0.0021
682.473	0.0031
682.732	0.0019
682.99	0.0006
683.249	0.0023
683.508	0.0014
683.766	0.0012
684.024	0.0017
684.283	0.0017
684.541	0.0015
684.799	0.0012
685.058	0.0015
685.316	0.0003
685.574	0.0015
685.832	0.001
686.09	0.0008
686.348	0.0005
686.606	0.0007
686.863	0.0012
687.121	0.0008
687.379	0.0002
687.636	0.001
687.894	0.0012
688.151	0.0016
688.409	0.0021
688.666	0.0013
688.923	0.0022
689.181	0.001
689.438	0.0009
689.695	0.0012
689.952	-0.0003
690.209	0.0001
690.466	-0.0009
690.723	0.0002
690.979	-0.0005
691.236	-0.0001
691.493	-0.0003
691.75	0.0012
692.006	0.001
692.263	0.0014
692.519	0.0009
692.775	0.0003
693.032	-0.0011
693.288	0.0004
693.544	0.0015
693.8	0.0015
694.056	0.0008
694.313	0.0007
694.568	0.0006
694.824	-0.0002
695.08	0.0005
695.336	0.0009
695.592	0.0005
695.847	0.0013
696.103	0.0003
696.359	0.0004
696.614	0.0003
696.869	-0.0002
697.125	-0.0008
697.38	0
697.635	-0.0015
697.891	-0.0012
698.146	-0.0007
698.401	-0.0001
698.656	-0.0011
698.911	0.0007
699.166	-0.0005
699.42	0.0005
699.675	0.0002
699.93	-0.0012
700.185	-0.0002
700.439	-0.0001
700.694	-0.0008
700.948	-0.0004
701.203	0.0004
701.457	0
701.711	-0.0004
701.965	-0.0011
702.22	-0.0012
702.474	-0.0002
702.728	-0.0009
702.982	-0.0013
703.236	-0.0013
703.49	-0.0008
703.743	-0.0015
703.997	-0.0011
704.251	-0.001
704.504	-0.0003
704.758	0.0002
705.012	-0.0007
705.265	-0.0005
705.518	-0.0017
705.772	-0.0021
706.025	-0.0019
706.278	-0.0017
706.531	-0.0017
706.785	-0.0019
707.038	-0.0003
707.291	-0.0013
707.543	-0.0012
707.796	-0.0014
708.049	-0.0024
708.302	-0.0028
708.555	-0.0026
708.807	-0.002
709.06	-0.0023
709.312	-0.0031
709.565	-0.0034
709.817	-0.0042
710.069	-0.0031
710.322	-0.0027
710.574	-0.0023
710.826	-0.0019
711.078	-0.0017
711.33	-0.0019
711.582	-0.003
711.834	-0.0023
712.086	-0.0015
712.338	0.0002
712.59	0.0001
712.841	-0.0004
713.093	-0
713.344	-0.0016
713.596	-0.0007
713.847	0.0007
714.099	0.0003
714.35	0.0004
714.601	0.0001
714.853	0.0019
715.104	0.0013
715.355	0.0008
715.606	0.0015
715.857	0.0002
716.108	0.0016
716.359	0.0009
716.609	0.0014
716.86	0.0002
717.111	-0.0008
717.361	-0.0019
717.612	-0.0012
717.863	-0.0018
718.113	-0.002
718.363	-0.0008
718.614	-0.0011
718.864	-0.0014
719.114	-0.001
719.364	-0.0007
719.614	-0.0003
719.865	-0.0019
720.114	-0.0012
720.364	-0.0008
720.614	0.0008
720.864	0.0013
721.114	0.0015
721.364	0.0018
721.613	0.0012
721.863	0.0013
722.112	0.0006
722.362	0.002
722.611	0.0014
722.86	-0.0005
723.11	-0.002
723.359	-0.0016
723.608	-0.0002
723.857	-0.0005
724.106	0.0013
724.355	0.0019
724.604	0.0022
724.853	0.0012
725.102	0.001
725.351	0.0008
725.599	0.0003
725.848	0.0001
726.097	-0.0009
726.345	-0
726.594	-0.0003
726.842	-0.0018
727.09	-0.0012
727.339	-0.0013
727.587	-0.0016
727.835	-0.003
728.083	-0.0025
728.331	-0.0027
728.579	-0.0031
728.827	-0.0026
729.075	-0.0031
729.323	-0.0017
729.571	-0.002
729.818	-0.0008
730.066	-0.0007
730.314	-0.0013
730.561	-0.0016
730.809	-0.0021
731.056	-0.0014
731.303	-0.0011
731.551	-0.0008
731.798	-0.0011
732.045	-0.0007
732.292	-0.0017
732.539	-0.0012
732.786	-0.0004
733.033	0.0005
733.28	0.0012
733.527	0.0008
733.774	-0
734.021	0.0013
734.267	0.0022
734.514	0.0018
734.76	0.002
735.007	0.0028
735.253	0.0026
735.5	0.0027
735.746	0.0033
735.992	0.003
736.238	0.0022
736.485	0.003
736.731	0.0024
736.977	0.0022
737.223	0.0021
737.469	0.0026
737.715	0.0025
737.96	0.0029
738.206	0.0021
738.452	0.0035
738.697	0.0029
738.943	0.003
739.189	0.0014
739.434	0.0001
739.679	-0.0004
739.925	-0.0003
740.17	-0.0014
740.415	-0.0018
740.66	-0.0009
740.906	-0.0002
741.151	-0.001
741.396	-0.0008
741.641	0.0021
741.886	0.0012
742.13	0.0014
742.375	0.0028
742.62	0.0029
742.865	0.0022
743.109	0.0018
743.354	0.0012
743.598	0.0015
743.843	0.0013
744.087	0.0011
744.331	0.0006
744.576	0.0004
744.82	-0.0002
745.064	0.0001
745.308	-0.0006
745.552	-0.0007
745.796	0
746.04	-0.0003
746.284	-0.0013
746.528	-0.0021
746.771	-0.0015
747.015	-0.0028
747.259	-0.0022
747.502	-0.0021
747.746	-0.001
747.989	-0.0016
748.233	-0.001
748.476	-0.0006
748.719	0.0005
748.963	-0.0007
749.206	-0.0009
749.449	-0
749.692	-0.0005
749.935	0.0008
750.178	0.0005
750.421	0.0012
750.664	0.0011
750.906	0.0007
751.149	0.0002
751.392	-0.0002
751.635	-0.0022
751.877	-0.0025
752.12	-0.0025
752.362	-0.0024
752.604	-0.0027
752.847	-0.0017
753.089	-0.0003
753.331	-0.0005
753.573	0.0002
753.816	0.0013
754.058	0.002
754.3	0.0015
754.542	0.0019
754.783	0.0006
755.025	0.0008
755.267	-0.0009
755.509	-0.001
755.75	-0.0014
755.992	-0.0002
756.234	-0.0006
756.475	-0.0018
756.716	-0.001
756.958	-0.0006
757.199	-0.0002
757.44	0.0006
757.682	0.0011
757.923	0.0007
758.164	0.001
758.405	0.0002
758.646	0.0005
758.887	-0
759.128	-0.0003
759.369	-0.001
759.609	-0.0007
759.85	-0.0016
760.091	-0.0009
760.331	-0.0018
760.572	-0.0016
760.812	-0.0015
761.053	-0.0014
761.293	-0.001
761.533	-0.0001
761.774	-0.0009
762.014	-0.0009
762.254	-0.0004
762.494	-0.001
762.734	-0.0005
762.974	-0.0003
763.214	-0.0012
763.454	-0.0011
763.694	-0.0013
763.933	-0.0022
764.173	0.0001
764.413	-0.0007
764.652	0.0005
764.892	0.0011
765.131	0.0015
765.371	0.0009
765.61	0.0009
765.849	-0.0001
766.089	0.0005
766.328	0.0011
766.567	0.0004
766.806	0.0008
767.045	0.0004
767.284	0.0002
767.523	0.0007
767.762	0.0004
768.001	-0.0002
768.239	0.0003
768.478	-0.0008
768.717	0.0003
768.955	0.0006
769.194	-0.0006
769.432	0.0004
769.671	0.0003
769.909	0.0002
770.148	0.0004
770.386	0.0001
770.624	0
770.862	0.0001
771.1	-0.0007
771.338	-0.0011
771.576	-0.0008
771.814	-0.0005
772.052	-0.0012
772.29	-0.0004
772.528	0.0001
772.765	0.0001
773.003	0.0003
773.24	0.0002
773.478	0.0001
773.716	0.0014
773.953	0.0008
774.19	0.0015
774.428	0.0008
774.665	0.0011
774.902	0.0013
775.139	0
775.376	0.0008
775.613	0.0002
775.85	-0.0003
776.087	-0.0015
776.324	-0.0014
776.561	-0.0009
776.798	-0
777.034	0.001
777.271	0.0015
777.508	0.0013
777.744	0.0005
777.981	0.0007
778.217	0.0002
778.454	0.0001
778.69	-0.0005
778.926	-0.0001
779.162	0.0005
779.399	0
779.635	-0.0001
779.871	0
780.107	0.0007
780.343	0.0017
780.579	0.0025
780.814	0.003
781.05	0.0025
781.286	0.0032
781.522	0.0026
781.757	0.0043
781.993	0.0035
782.228	0.0039
782.464	0.004
782.699	0.002
782.934	0.002
783.17	0.0012
783.405	0.0006
783.64	0.0001
783.875	0.0007
784.11	0.001
784.345	0.0009
784.58	0.001
784.815	0.001
785.05	0.0015
785.285	0.0001
785.52	0.0004
785.754	0.001
785.989	0.0001
786.223	-0.0014
786.458	-0.0007
786.692	-0.0004
786.927	-0.0018
787.161	-0.0015
787.396	-0.0019
787.63	-0.0025
787.864	-0.0027
788.098	-0.0028
788.332	-0.0021
788.566	-0.0023
788.8	-0.0023
789.034	-0.0006
789.268	-0.0009
789.502	-0.0007
789.736	0.0002
789.969	0.0003
790.203	0.0007
790.437	0.0007
790.67	0.0007
790.904	0.0003
791.137	-0.0005
791.37	-0.0002
791.604	-0.0013
791.837	-0.0002
792.07	-0.0002
792.303	0.0007
792.537	-0.0004
792.77	-0.0009
793.003	-0.0006
793.236	-0.0012
793.469	-0.0016
793.701	-0.0011
793.934	-0.0004
794.167	-0.0006
794.4	-0.0001
794.632	-0.0001
794.865	-0.0011
795.097	-0
795.33	0.0001
795.562	-0.0009
795.795	-0.0003
796.027	-0.0003
796.259	-0.0004
796.491	-0.0019
796.724	-0.0023
796.956	-0.0017
797.188	-0.0016
797.42	-0.0025
797.652	-0.0022
797.883	-0.0019
798.115	-0.0024
798.347	-0.0032
798.579	-0.0042
798.81	-0.0043
799.042	-0.003
799.274	-0.0033
799.505	-0.003
799.737	-0.004
799.968	-0.0035
800.199	-0.0031
800.431	-0.0046
800.662	-0.0034
800.893	-0.0037
801.124	-0.0037
801.355	-0.0026
801.586	-0.0025
801.817	-0.0021
802.048	-0.0017
802.279	-0.0005
802.51	-0.0005
802.741	-0.0014
802.971	-0.0005
803.202	-0.0012
803.433	-0.0012
803.663	-0.0006
803.894	-0.0005
804.124	-0.0004
804.354	-0.0016
804.585	-0.0008
804.815	-0.0012
805.045	-0.0008
805.275	-0.0011
805.506	-0.0724
805.736	0.0906
805.966	0.0388
806.196	0.0858
