Data from 03 0.2 mM BQDS 0.4 mM K2Cr2O7 1 M H2SO4 5 min_Absorbance_18-37-42-974.txt Node
Date: Wed Dec 08 18:37:42 EST 2021
User: kwabilab-user
Spectrometer: HDX00518
Trigger mode: 0
Integration Time (sec): 5.000000E-2
Scans to average: 50
Nonlinearity correction enabled: false
Boxcar width: 0
Storing dark spectrum: false
XAxis mode: Wavelengths
Number of Pixels in Spectrum: 2068
>>>>>Begin Spectral Data<<<<<
195.27	0.219
195.642	0.1584
196.014	0.2191
196.386	0.0564
196.758	0.0826
197.129	0.0411
197.501	0.0717
197.872	0.127
198.244	0.1344
198.615	0.1362
198.986	0.1308
199.357	0.1244
199.728	0.1323
200.099	0.1231
200.47	0.1292
200.841	0.1283
201.212	0.1275
201.582	0.1181
201.953	0.1324
202.323	0.1337
202.694	0.1262
203.064	0.1339
203.434	0.1272
203.804	0.1404
204.174	0.1336
204.544	0.1352
204.914	0.13
205.284	0.137
205.653	0.1498
206.023	0.1336
206.393	0.1162
206.762	0.1387
207.131	0.1471
207.501	0.1262
207.87	0.1545
208.239	0.1404
208.608	0.1449
208.977	0.1515
209.346	0.1542
209.715	0.1518
210.083	0.159
210.452	0.151
210.82	0.1691
211.189	0.1832
211.557	0.1492
211.925	0.1682
212.294	0.1999
212.662	0.1903
213.03	0.2157
213.398	0.1891
213.766	0.197
214.133	0.2174
214.501	0.2161
214.869	0.2346
215.236	0.2665
215.604	0.2783
215.971	0.2716
216.338	0.2897
216.705	0.3171
217.072	0.336
217.439	0.3379
217.806	0.382
218.173	0.3929
218.54	0.4333
218.907	0.4584
219.273	0.5049
219.64	0.5519
220.006	0.5837
220.373	0.5922
220.739	0.6386
221.105	0.6796
221.471	0.7088
221.837	0.7469
222.203	0.7883
222.569	0.8165
222.935	0.8623
223.3	0.871
223.666	0.9029
224.031	0.9263
224.397	0.9491
224.762	0.9646
225.127	0.9911
225.493	0.9991
225.858	1.0023
226.223	1.0164
226.588	1.0239
226.952	1.0265
227.317	1.0368
227.682	1.0216
228.046	1.0272
228.411	1.0338
228.775	1.023
229.14	1.0221
229.504	1.0122
229.868	1.0119
230.232	1.0056
230.596	1.0007
230.96	0.9936
231.324	0.982
231.688	0.969
232.052	0.966
232.415	0.9492
232.779	0.9508
233.142	0.941
233.505	0.9316
233.869	0.9239
234.232	0.912
234.595	0.8966
234.958	0.8932
235.321	0.8791
235.684	0.8713
236.047	0.8598
236.409	0.8522
236.772	0.8446
237.134	0.8367
237.497	0.827
237.859	0.8171
238.222	0.809
238.584	0.8005
238.946	0.7917
239.308	0.7837
239.67	0.7737
240.032	0.7671
240.393	0.7581
240.755	0.7497
241.117	0.7446
241.478	0.7372
241.84	0.7302
242.201	0.7219
242.562	0.7145
242.924	0.7091
243.285	0.7032
243.646	0.694
244.007	0.6941
244.368	0.6879
244.728	0.6815
245.089	0.6762
245.45	0.67
245.81	0.6675
246.171	0.6612
246.531	0.6535
246.891	0.6514
247.252	0.6476
247.612	0.6442
247.972	0.6382
248.332	0.6359
248.692	0.6294
249.051	0.6267
249.411	0.6256
249.771	0.6201
250.13	0.6179
250.49	0.6137
250.849	0.6119
251.208	0.6095
251.568	0.6036
251.927	0.6026
252.286	0.6002
252.645	0.5984
253.004	0.5941
253.363	0.5916
253.721	0.5922
254.08	0.5887
254.439	0.5866
254.797	0.5833
255.155	0.5799
255.514	0.5787
255.872	0.5774
256.23	0.5758
256.588	0.5732
256.946	0.5696
257.304	0.5695
257.662	0.5677
258.02	0.567
258.377	0.5623
258.735	0.5624
259.093	0.5585
259.45	0.556
259.807	0.5566
260.165	0.5551
260.522	0.5522
260.879	0.5501
261.236	0.5488
261.593	0.5456
261.95	0.5414
262.306	0.5415
262.663	0.5395
263.02	0.5391
263.376	0.5355
263.733	0.5329
264.089	0.5313
264.445	0.5293
264.802	0.5279
265.158	0.5232
265.514	0.5233
265.87	0.5213
266.226	0.5183
266.581	0.5165
266.937	0.5133
267.293	0.5131
267.648	0.5098
268.004	0.5073
268.359	0.5044
268.714	0.5024
269.07	0.4985
269.425	0.4967
269.78	0.4974
270.135	0.493
270.49	0.4899
270.844	0.4892
271.199	0.4868
271.554	0.4834
271.908	0.4805
272.263	0.4782
272.617	0.4759
272.972	0.473
273.326	0.4704
273.68	0.4677
274.034	0.4659
274.388	0.4615
274.742	0.4576
275.096	0.4562
275.45	0.4532
275.803	0.4501
276.157	0.4475
276.51	0.4449
276.864	0.4417
277.217	0.439
277.571	0.4356
277.924	0.4309
278.277	0.4308
278.63	0.4259
278.983	0.4227
279.336	0.4193
279.688	0.4165
280.041	0.4122
280.394	0.4089
280.746	0.4063
281.099	0.4032
281.451	0.3973
281.803	0.3936
282.156	0.3912
282.508	0.3875
282.86	0.3842
283.212	0.3803
283.564	0.377
283.916	0.3731
284.267	0.3696
284.619	0.3669
284.971	0.3618
285.322	0.3601
285.673	0.3555
286.025	0.3525
286.376	0.3483
286.727	0.3447
287.078	0.3407
287.429	0.3386
287.78	0.3322
288.131	0.3282
288.482	0.3255
288.833	0.3228
289.183	0.3172
289.534	0.3147
289.884	0.3111
290.235	0.3067
290.585	0.3031
290.935	0.3
291.285	0.2954
291.635	0.2918
291.985	0.2883
292.335	0.2842
292.685	0.2806
293.035	0.2774
293.384	0.2731
293.734	0.2695
294.083	0.2663
294.433	0.2621
294.782	0.2588
295.131	0.2552
295.48	0.2521
295.829	0.2491
296.179	0.2444
296.527	0.242
296.876	0.2388
297.225	0.2366
297.574	0.232
297.922	0.2295
298.271	0.2264
298.619	0.2225
298.968	0.2202
299.316	0.217
299.664	0.2144
300.012	0.2112
300.36	0.208
300.708	0.2052
301.056	0.2033
301.404	0.201
301.752	0.1981
302.099	0.1958
302.447	0.1937
302.794	0.191
303.142	0.1888
303.489	0.1864
303.836	0.1843
304.183	0.1822
304.531	0.1806
304.878	0.1789
305.224	0.1766
305.571	0.1752
305.918	0.1731
306.265	0.1711
306.611	0.1701
306.958	0.1685
307.304	0.167
307.651	0.1659
307.997	0.1646
308.343	0.1639
308.689	0.1624
309.035	0.1618
309.381	0.1607
309.727	0.1592
310.073	0.1597
310.419	0.1582
310.764	0.1568
311.11	0.1563
311.455	0.1557
311.801	0.1546
312.146	0.1547
312.491	0.1539
312.837	0.1542
313.182	0.154
313.527	0.1533
313.872	0.1528
314.216	0.1526
314.561	0.1526
314.906	0.1522
315.251	0.1522
315.595	0.1519
315.94	0.152
316.284	0.1526
316.628	0.1516
316.972	0.1524
317.317	0.1517
317.661	0.1526
318.005	0.1523
318.348	0.1531
318.692	0.1534
319.036	0.1534
319.38	0.1534
319.723	0.1548
320.067	0.1547
320.41	0.1553
320.754	0.1559
321.097	0.1566
321.44	0.1572
321.783	0.1576
322.126	0.1583
322.469	0.1595
322.812	0.16
323.155	0.1607
323.498	0.1624
323.84	0.163
324.183	0.1638
324.525	0.1647
324.868	0.1648
325.21	0.1666
325.552	0.1673
325.894	0.1681
326.236	0.1689
326.578	0.1702
326.92	0.1709
327.262	0.1717
327.604	0.1734
327.946	0.174
328.287	0.1757
328.629	0.1763
328.97	0.1774
329.312	0.1787
329.653	0.1795
329.994	0.1806
330.335	0.1817
330.676	0.1829
331.017	0.1841
331.358	0.1853
331.699	0.1863
332.04	0.1881
332.38	0.1884
332.721	0.1906
333.061	0.1913
333.402	0.1927
333.742	0.1931
334.083	0.1952
334.423	0.1948
334.763	0.1964
335.103	0.1976
335.443	0.1987
335.783	0.1992
336.123	0.1996
336.462	0.2009
336.802	0.2023
337.141	0.2034
337.481	0.2038
337.82	0.2045
338.16	0.2052
338.499	0.2064
338.838	0.2073
339.177	0.2089
339.516	0.2084
339.855	0.2103
340.194	0.2109
340.533	0.2125
340.872	0.2126
341.21	0.2134
341.549	0.2142
341.887	0.2145
342.226	0.2154
342.564	0.2154
342.902	0.2157
343.24	0.216
343.578	0.2159
343.916	0.2164
344.254	0.2174
344.592	0.2171
344.93	0.2169
345.268	0.2167
345.605	0.2171
345.943	0.2173
346.28	0.2175
346.618	0.217
346.955	0.2175
347.292	0.2177
347.629	0.2187
347.966	0.218
348.303	0.2182
348.64	0.2182
348.977	0.2174
349.314	0.2181
349.65	0.2181
349.987	0.2178
350.324	0.2175
350.66	0.2164
350.996	0.217
351.333	0.2156
351.669	0.215
352.005	0.2147
352.341	0.2138
352.677	0.2133
353.013	0.2124
353.349	0.2118
353.685	0.2103
354.02	0.2092
354.356	0.2086
354.691	0.2075
355.027	0.2066
355.362	0.2058
355.697	0.2049
356.033	0.2039
356.368	0.203
356.703	0.2023
357.038	0.2018
357.373	0.2014
357.707	0.2004
358.042	0.199
358.377	0.1982
358.711	0.1974
359.046	0.1961
359.38	0.1953
359.715	0.1942
360.049	0.193
360.383	0.1919
360.717	0.1908
361.051	0.189
361.385	0.1888
361.719	0.186
362.053	0.1861
362.387	0.1834
362.72	0.182
363.054	0.18
363.387	0.179
363.721	0.1768
364.054	0.1749
364.387	0.174
364.721	0.1726
365.054	0.1707
365.387	0.1694
365.72	0.1682
366.053	0.1657
366.385	0.1643
366.718	0.1635
367.051	0.1617
367.383	0.1611
367.716	0.1597
368.048	0.1583
368.381	0.1567
368.713	0.1556
369.045	0.1547
369.377	0.1531
369.709	0.1517
370.041	0.1515
370.373	0.1502
370.705	0.148
371.037	0.1471
371.368	0.1448
371.7	0.144
372.031	0.142
372.363	0.1402
372.694	0.1393
373.025	0.1368
373.356	0.1354
373.688	0.1333
374.019	0.1307
374.35	0.1295
374.68	0.1276
375.011	0.1257
375.342	0.1237
375.673	0.122
376.003	0.1207
376.334	0.1189
376.664	0.1173
376.995	0.116
377.325	0.1146
377.655	0.1139
377.985	0.1117
378.315	0.1108
378.645	0.1094
378.975	0.108
379.305	0.1064
379.635	0.1061
379.964	0.105
380.294	0.1034
380.623	0.1025
380.953	0.1016
381.282	0.1003
381.611	0.0991
381.941	0.0974
382.27	0.0968
382.599	0.0945
382.928	0.0938
383.257	0.0932
383.585	0.0914
383.914	0.0899
384.243	0.0887
384.571	0.0867
384.9	0.0851
385.228	0.0839
385.557	0.0828
385.885	0.0813
386.213	0.08
386.541	0.0785
386.869	0.0769
387.197	0.0754
387.525	0.0744
387.853	0.0726
388.181	0.0719
388.508	0.0715
388.836	0.0704
389.164	0.0688
389.491	0.0682
389.818	0.0669
390.146	0.0653
390.473	0.0641
390.8	0.0639
391.127	0.0625
391.454	0.0621
391.781	0.0614
392.108	0.0602
392.435	0.0585
392.761	0.0572
393.088	0.0571
393.415	0.0567
393.741	0.0566
394.067	0.0556
394.394	0.0552
394.72	0.054
395.046	0.0527
395.372	0.0517
395.698	0.0513
396.024	0.0511
396.35	0.0496
396.676	0.0495
397.001	0.0489
397.327	0.0476
397.653	0.0467
397.978	0.0456
398.303	0.0452
398.629	0.0442
398.954	0.0442
399.279	0.0441
399.604	0.0431
399.929	0.0426
400.254	0.0422
400.579	0.0421
400.904	0.0413
401.229	0.0402
401.553	0.0396
401.878	0.0393
402.202	0.039
402.527	0.0388
402.851	0.0384
403.175	0.0378
403.5	0.0378
403.824	0.0382
404.148	0.0369
404.472	0.0369
404.796	0.0362
405.119	0.0356
405.443	0.0353
405.767	0.0351
406.09	0.0354
406.414	0.0352
406.737	0.0347
407.061	0.035
407.384	0.0348
407.707	0.0338
408.03	0.0348
408.353	0.035
408.676	0.0341
408.999	0.0336
409.322	0.034
409.645	0.0342
409.968	0.0333
410.29	0.0337
410.613	0.0334
410.935	0.0332
411.258	0.0342
411.58	0.0335
411.902	0.034
412.224	0.0334
412.546	0.033
412.868	0.0332
413.19	0.0334
413.512	0.033
413.834	0.033
414.156	0.034
414.477	0.0329
414.799	0.0332
415.121	0.0338
415.442	0.0336
415.763	0.0338
416.085	0.0336
416.406	0.0338
416.727	0.0336
417.048	0.0333
417.369	0.034
417.69	0.0334
418.011	0.0333
418.331	0.0334
418.652	0.0339
418.973	0.0344
419.293	0.0339
419.614	0.0341
419.934	0.034
420.254	0.0342
420.574	0.034
420.895	0.034
421.215	0.0336
421.535	0.0331
421.855	0.0338
422.174	0.0339
422.494	0.0335
422.814	0.0341
423.134	0.034
423.453	0.0345
423.773	0.0344
424.092	0.0342
424.411	0.034
424.731	0.0344
425.05	0.0343
425.369	0.0348
425.688	0.0351
426.007	0.0351
426.326	0.0353
426.644	0.0361
426.963	0.0354
427.282	0.0357
427.6	0.0351
427.919	0.0359
428.237	0.0359
428.556	0.036
428.874	0.0357
429.192	0.0348
429.51	0.0353
429.828	0.0355
430.146	0.0354
430.464	0.036
430.782	0.0357
431.1	0.0354
431.418	0.0353
431.735	0.0353
432.053	0.0361
432.37	0.0359
432.688	0.0359
433.005	0.0363
433.322	0.0359
433.639	0.0357
433.957	0.0363
434.274	0.0368
434.591	0.0365
434.907	0.0372
435.224	0.0364
435.541	0.0359
435.858	0.0376
436.174	0.0374
436.491	0.0364
436.807	0.0368
437.124	0.0358
437.44	0.0362
437.756	0.0364
438.072	0.0358
438.388	0.0373
438.704	0.0367
439.02	0.0363
439.336	0.0358
439.652	0.0365
439.968	0.0362
440.283	0.0366
440.599	0.0362
440.914	0.0361
441.23	0.036
441.545	0.0361
441.86	0.0364
442.175	0.0368
442.491	0.036
442.806	0.036
443.121	0.0359
443.435	0.0359
443.75	0.0356
444.065	0.036
444.38	0.0361
444.694	0.0361
445.009	0.036
445.323	0.0359
445.638	0.0363
445.952	0.0362
446.266	0.0353
446.58	0.0364
446.894	0.0359
447.208	0.0364
447.522	0.0365
447.836	0.0346
448.15	0.0353
448.464	0.0346
448.777	0.0347
449.091	0.0348
449.404	0.0354
449.718	0.0359
450.031	0.035
450.345	0.0345
450.658	0.035
450.971	0.0347
451.284	0.0342
451.597	0.0347
451.91	0.0354
452.223	0.0342
452.535	0.035
452.848	0.0348
453.161	0.034
453.473	0.0348
453.786	0.0351
454.098	0.0344
454.411	0.0339
454.723	0.0335
455.035	0.0334
455.347	0.0344
455.659	0.0347
455.971	0.0338
456.283	0.034
456.595	0.0335
456.907	0.034
457.218	0.0334
457.53	0.0332
457.841	0.0328
458.153	0.0323
458.464	0.0321
458.776	0.0315
459.087	0.0318
459.398	0.0323
459.709	0.0317
460.02	0.0326
460.331	0.0322
460.642	0.0313
460.953	0.0315
461.263	0.0311
461.574	0.0313
461.885	0.0311
462.195	0.0316
462.506	0.0311
462.816	0.0309
463.126	0.0297
463.437	0.0301
463.747	0.0297
464.057	0.0297
464.367	0.0301
464.677	0.0294
464.987	0.0297
465.296	0.0289
465.606	0.0287
465.916	0.0284
466.225	0.028
466.535	0.0281
466.844	0.0287
467.154	0.0283
467.463	0.0282
467.772	0.028
468.081	0.0272
468.39	0.0281
468.699	0.0275
469.008	0.0276
469.317	0.0275
469.626	0.0279
469.935	0.0277
470.243	0.0279
470.552	0.0279
470.86	0.0277
471.169	0.0266
471.477	0.0268
471.785	0.0271
472.093	0.0265
472.402	0.0255
472.71	0.0257
473.018	0.0255
473.326	0.0252
473.633	0.025
473.941	0.0245
474.249	0.0247
474.556	0.0242
474.864	0.0241
475.171	0.023
475.479	0.0242
475.786	0.0242
476.094	0.0237
476.401	0.0235
476.708	0.0234
477.015	0.0237
477.322	0.0236
477.629	0.0235
477.936	0.0225
478.242	0.022
478.549	0.0221
478.856	0.022
479.162	0.0224
479.469	0.0226
479.775	0.0225
480.081	0.0211
480.388	0.0216
480.694	0.021
481	0.0209
481.306	0.0214
481.612	0.0206
481.918	0.0198
482.224	0.0205
482.53	0.0202
482.835	0.02
483.141	0.0193
483.446	0.0191
483.752	0.0191
484.057	0.0182
484.363	0.0178
484.668	0.0179
484.973	0.0172
485.278	0.0183
485.583	0.0169
485.888	0.0168
486.193	0.0171
486.498	0.0175
486.803	0.0174
487.107	0.0172
487.412	0.0159
487.717	0.016
488.021	0.0167
488.325	0.0165
488.63	0.016
488.934	0.0163
489.238	0.017
489.542	0.0152
489.846	0.0152
490.15	0.0162
490.454	0.0155
490.758	0.0157
491.062	0.0154
491.366	0.0147
491.669	0.0153
491.973	0.0146
492.276	0.0143
492.58	0.0133
492.883	0.014
493.186	0.0147
493.489	0.0146
493.792	0.0143
494.096	0.0141
494.399	0.0137
494.701	0.014
495.004	0.014
495.307	0.0126
495.61	0.0124
495.912	0.0124
496.215	0.0123
496.517	0.0123
496.82	0.0116
497.122	0.0124
497.424	0.0109
497.727	0.0116
498.029	0.0122
498.331	0.0113
498.633	0.0123
498.935	0.0113
499.237	0.0115
499.538	0.0108
499.84	0.0107
500.142	0.0113
500.443	0.0112
500.745	0.0108
501.046	0.0106
501.348	0.0099
501.649	0.0105
501.95	0.0101
502.251	0.0098
502.552	0.0092
502.853	0.009
503.154	0.009
503.455	0.0091
503.756	0.009
504.057	0.0093
504.357	0.0095
504.658	0.009
504.958	0.0091
505.259	0.0088
505.559	0.0098
505.859	0.0081
506.16	0.0092
506.46	0.0082
506.76	0.0087
507.06	0.0077
507.36	0.0087
507.66	0.0096
507.96	0.0088
508.259	0.0076
508.559	0.0073
508.859	0.0084
509.158	0.0077
509.457	0.0074
509.757	0.0085
510.056	0.0072
510.355	0.0071
510.655	0.0056
510.954	0.0068
511.253	0.0068
511.552	0.0076
511.851	0.0064
512.149	0.0061
512.448	0.0062
512.747	0.008
513.045	0.0054
513.344	0.0064
513.642	0.007
513.941	0.0066
514.239	0.0076
514.537	0.0062
514.836	0.0066
515.134	0.006
515.432	0.0063
515.73	0.0062
516.028	0.006
516.326	0.0065
516.623	0.0055
516.921	0.0055
517.219	0.0064
517.516	0.0063
517.814	0.0058
518.111	0.0066
518.409	0.0064
518.706	0.0063
519.003	0.0063
519.3	0.0041
519.597	0.0041
519.894	0.0058
520.191	0.0059
520.488	0.0055
520.785	0.0043
521.082	0.0054
521.378	0.0051
521.675	0.0051
521.971	0.0043
522.268	0.0056
522.564	0.005
522.861	0.0051
523.157	0.0035
523.453	0.0044
523.749	0.0051
524.045	0.0058
524.341	0.0045
524.637	0.0045
524.933	0.0039
525.229	0.0037
525.524	0.005
525.82	0.0047
526.115	0.0035
526.411	0.0037
526.706	0.0048
527.002	0.0039
527.297	0.0031
527.592	0.0058
527.887	0.0043
528.182	0.005
528.477	0.0054
528.772	0.0039
529.067	0.0043
529.362	0.0047
529.657	0.0044
529.951	0.0045
530.246	0.0025
530.54	0.002
530.835	0.0028
531.129	0.0025
531.423	0.0036
531.718	0.0031
532.012	0.0038
532.306	0.0038
532.6	0.0036
532.894	0.0035
533.188	0.0038
533.482	0.0023
533.775	0.0033
534.069	0.0025
534.363	0.0026
534.656	0.0023
534.95	0.002
535.243	0.0031
535.536	0.0024
535.83	0.0039
536.123	0.0021
536.416	0.0033
536.709	0.003
537.002	0.0032
537.295	0.003
537.588	0.0035
537.881	0.0028
538.173	0.002
538.466	0.002
538.759	0.0018
539.051	0.0017
539.344	0.0024
539.636	0.0026
539.928	0.0027
540.22	0.0032
540.513	0.0036
540.805	0.0028
541.097	0.0042
541.389	0.0026
541.681	0.003
541.972	0.0033
542.264	0.0021
542.556	0.0024
542.847	0.0029
543.139	0.0039
543.431	0.0041
543.722	0.0037
544.013	0.0047
544.305	0.0043
544.596	0.004
544.887	0.0041
545.178	0.0036
545.469	0.0034
545.76	0.0023
546.051	0.0029
546.342	0.0036
546.632	0.0022
546.923	0.0034
547.214	0.0028
547.504	0.0026
547.795	0.0027
548.085	0.0025
548.375	0.002
548.666	0.003
548.956	0.0018
549.246	0.0033
549.536	0.0019
549.826	0.0027
550.116	0.0036
550.406	0.0038
550.695	0.0044
550.985	0.0035
551.275	0.0042
551.564	0.0044
551.854	0.0041
552.143	0.0036
552.433	0.0029
552.722	0.0033
553.011	0.004
553.3	0.0038
553.589	0.0035
553.879	0.0038
554.167	0.0038
554.456	0.0036
554.745	0.0026
555.034	0.0022
555.323	0.0019
555.611	0.0023
555.9	0.0035
556.188	0.0033
556.477	0.0032
556.765	0.003
557.053	0.003
557.342	0.0021
557.63	0.0044
557.918	0.0027
558.206	0.0036
558.494	0.0039
558.782	0.0041
559.069	0.0036
559.357	0.0038
559.645	0.0033
559.932	0.0033
560.22	0.0041
560.507	0.0034
560.795	0.0026
561.082	0.0021
561.37	0.0027
561.657	0.0029
561.944	0.0028
562.231	0.0021
562.518	0.002
562.805	0.0033
563.092	0.0034
563.379	0.0032
563.665	0.0022
563.952	0.0032
564.239	0.0039
564.525	0.0045
564.811	0.0046
565.098	0.0036
565.384	0.0042
565.67	0.0043
565.957	0.0035
566.243	0.0038
566.529	0.0046
566.815	0.0055
567.101	0.003
567.387	0.0029
567.672	0.0037
567.958	0.0038
568.244	0.0033
568.529	0.0035
568.815	0.0027
569.1	0.0029
569.386	0.003
569.671	0.0024
569.956	0.0029
570.242	0.0033
570.527	0.0038
570.812	0.0033
571.097	0.0033
571.382	0.0026
571.666	0.0027
571.951	0.0024
572.236	0.0026
572.521	0.0024
572.805	0.003
573.09	0.0027
573.374	0.0021
573.659	0.0014
573.943	0.003
574.227	0.0023
574.511	0.0033
574.795	0.0033
575.079	0.0025
575.363	0.0027
575.647	0.004
575.931	0.0035
576.215	0.0037
576.499	0.0016
576.782	0.0028
577.066	0.0024
577.349	0.0026
577.633	0.0027
577.916	0.0026
578.2	0.003
578.483	0.0026
578.766	0.0023
579.049	0.0037
579.332	0.0026
579.615	0.002
579.898	0.0023
580.181	0.0028
580.464	0.0027
580.746	0.0014
581.029	0.0024
581.312	0.0013
581.594	0.0008
581.877	0.002
582.159	0.0032
582.441	0.0026
582.724	0.0024
583.006	0.0021
583.288	0.0017
583.57	0.0025
583.852	0.0024
584.134	0.0025
584.416	0.0029
584.697	0.0022
584.979	0.0018
585.261	0.002
585.542	0.0021
585.824	0.0024
586.105	0.0026
586.387	0.0018
586.668	0.0024
586.949	0.0032
587.231	0.0018
587.512	0.0022
587.793	0.0019
588.074	0.003
588.355	0.0026
588.636	0.003
588.916	0.0026
589.197	0.0033
589.478	0.0041
589.758	0.0026
590.039	0.0026
590.319	0.003
590.6	0.0024
590.88	0.0023
591.16	0.0026
591.441	0.0032
591.721	0.0027
592.001	0.0025
592.281	0.0026
592.561	0.0031
592.841	0.0019
593.12	0.0024
593.4	0.0013
593.68	0.0024
593.959	0.0019
594.239	0.004
594.518	0.0029
594.798	0.0027
595.077	0.0026
595.356	0.0023
595.636	0.0033
595.915	0.0031
596.194	0.0031
596.473	0.0035
596.752	0.0028
597.031	0.0023
597.31	0.0016
597.588	0.0023
597.867	0.002
598.146	0.0024
598.424	0.0022
598.703	0.002
598.981	0.0017
599.259	0.0027
599.538	0.0036
599.816	0.0025
600.094	0.0023
600.372	0.0033
600.65	0.0033
600.928	0.0032
601.206	0.0033
601.484	0.0038
601.762	0.0027
602.04	0.0032
602.317	0.0026
602.595	0.0034
602.872	0.0033
603.15	0.0028
603.427	0.0017
603.704	0.0019
603.982	0.0023
604.259	0.0009
604.536	0.0019
604.813	0.0022
605.09	0.0016
605.367	0.0015
605.644	0.0022
605.921	0.0022
606.197	0.0019
606.474	0.0021
606.751	0.0013
607.027	0.0012
607.304	0.0011
607.58	0.002
607.856	0.0022
608.133	0.0026
608.409	0.0023
608.685	0.0022
608.961	0.0031
609.237	0.0029
609.513	0.0029
609.789	0.0024
610.065	0.0011
610.341	0.003
610.616	0.0029
610.892	0.0038
611.167	0.0037
611.443	0.0036
611.718	0.0033
611.994	0.0035
612.269	0.0035
612.544	0.003
612.819	0.0025
613.095	0.0036
613.37	0.0026
613.645	0.0022
613.919	0.0024
614.194	0.0026
614.469	0.0016
614.744	0.0008
615.019	0.0004
615.293	0.0003
615.568	0.0008
615.842	0.0012
616.116	0.0014
616.391	0.0017
616.665	0.0027
616.939	0.0019
617.213	0.0031
617.488	0.0026
617.762	0.0028
618.035	0.0025
618.309	0.0019
618.583	0.0021
618.857	0.003
619.131	0.0024
619.404	0.0024
619.678	0.0024
619.951	0.0008
620.225	0.0006
620.498	0.0021
620.771	0.0022
621.045	0.0031
621.318	0.004
621.591	0.0038
621.864	0.0023
622.137	0.002
622.41	0.0023
622.683	0.0017
622.956	0.0024
623.228	0.0022
623.501	0.0028
623.774	0.003
624.046	0.003
624.319	0.0023
624.591	0.0015
624.863	0.0023
625.136	0.0026
625.408	0.0024
625.68	0.0021
625.952	0.0023
626.224	0.0024
626.496	0.0012
626.768	0.0014
627.04	0.0019
627.311	0.0012
627.583	0.0024
627.855	0.0027
628.126	0.0026
628.398	0.0036
628.669	0.0034
628.941	0.0018
629.212	0.0002
629.483	0.0006
629.755	0.0012
630.026	0.0004
630.297	0.001
630.568	0.0006
630.839	0.0015
631.11	0.0013
631.38	0.0013
631.651	0.0013
631.922	0.0011
632.192	0.0015
632.463	0.0016
632.733	0.0024
633.004	0.0019
633.274	0.0015
633.545	0.0028
633.815	0.0048
634.085	0.0046
634.355	0.0028
634.625	0.0044
634.895	0.0038
635.165	0.0031
635.435	0.0042
635.705	0.004
635.974	0.0026
636.244	0.0034
636.514	0.0024
636.783	0.002
637.053	0.004
637.322	0.0022
637.591	0.0034
637.861	0.0027
638.13	0.0038
638.399	0.0029
638.668	0.0035
638.937	0.0024
639.206	0.0034
639.475	0.0032
639.744	0.0028
640.013	0.0031
640.281	0.0044
640.55	0.0039
640.819	0.0041
641.087	0.0043
641.356	0.0035
641.624	0.0031
641.892	0.0035
642.161	0.0041
642.429	0.0043
642.697	0.0034
642.965	0.005
643.233	0.0043
643.501	0.0026
643.769	0.0024
644.037	0.0028
644.305	0.0024
644.572	0.0018
644.84	0.0014
645.108	0.0025
645.375	0.0016
645.643	0.0023
645.91	0.0025
646.177	0.0044
646.445	0.0048
646.712	0.0061
646.979	0.0056
647.246	0.0052
647.513	0.005
647.78	0.0056
648.047	0.0051
648.314	0.0041
648.58	0.0036
648.847	0.0023
649.114	0.0018
649.38	0.0014
649.647	0.0019
649.913	0.0021
650.18	0.0019
650.446	0.0022
650.712	0.0026
650.978	0.0026
651.245	0.0039
651.511	0.0043
651.777	0.0034
652.043	0.0052
652.309	0.0042
652.574	0.0049
652.84	0.0047
653.106	0.0032
653.371	0.0025
653.637	0.0031
653.903	0.0042
654.168	0.0045
654.433	0.005
654.699	0.0045
654.964	0.0044
655.229	0.0046
655.494	0.0022
655.759	-0.002
656.024	0.0003
656.289	-0
656.554	0.0008
656.819	0.0014
657.084	0.0039
657.349	0.0044
657.613	0.0054
657.878	0.0035
658.142	0.0047
658.407	0.0043
658.671	0.0036
658.936	0.0028
659.2	0.0025
659.464	0.0022
659.728	0.0026
659.992	0.0028
660.256	0.0021
660.52	0.0019
660.784	0.0014
661.048	0.0013
661.312	-0
661.575	0.0009
661.839	-0.0003
662.103	-0.0002
662.366	-0.0009
662.63	0.0015
662.893	0.001
663.156	0.0007
663.42	0.0005
663.683	0.0019
663.946	0.0029
664.209	0.0043
664.472	0.0043
664.735	0.0038
664.998	0.0033
665.261	0.0022
665.524	0.0014
665.786	0.0023
666.049	0.0025
666.312	0.0028
666.574	0.0036
666.837	0.0032
667.099	0.0019
667.361	0.0024
667.624	0.0023
667.886	0.0024
668.148	0.0029
668.41	0.0042
668.672	0.0019
668.934	0.0025
669.196	0.0018
669.458	0.0026
669.72	0.003
669.982	0.0038
670.243	0.0041
670.505	0.0038
670.766	0.0031
671.028	0.0042
671.289	0.0032
671.551	0.0012
671.812	0.0002
672.073	0.0018
672.334	0.0009
672.596	0.002
672.857	0.0016
673.118	0.0029
673.379	0.0023
673.639	0.0008
673.9	0.0016
674.161	0.0007
674.422	-0.0008
674.682	-0.001
674.943	-0.0012
675.203	0.0006
675.464	0.0005
675.724	0.0021
675.985	0.0017
676.245	0.0025
676.505	0.0027
676.765	0.0025
677.025	0.0027
677.285	0.0024
677.545	0.0029
677.805	0.0025
678.065	0.0027
678.325	0.0041
678.585	0.0025
678.844	0.0029
679.104	0.0033
679.363	0.003
679.623	0.0038
679.882	0.0034
680.142	0.0044
680.401	0.004
680.66	0.005
680.919	0.0039
681.178	0.0047
681.437	0.0045
681.696	0.0026
681.955	0.0041
682.214	0.0043
682.473	0.0048
682.732	0.0045
682.99	0.0039
683.249	0.0041
683.508	0.0041
683.766	0.0037
684.024	0.0039
684.283	0.0047
684.541	0.0038
684.799	0.0052
685.058	0.0028
685.316	0.003
685.574	0.0036
685.832	0.0034
686.09	0.0041
686.348	0.0047
686.606	0.0042
686.863	0.0046
687.121	0.0053
687.379	0.0043
687.636	0.0037
687.894	0.0045
688.151	0.0042
688.409	0.0046
688.666	0.0039
688.923	0.0049
689.181	0.0038
689.438	0.0028
689.695	0.0023
689.952	0.0019
690.209	0.0024
690.466	0.0023
690.723	0.0047
690.979	0.0036
691.236	0.0028
691.493	0.0019
691.75	0.0034
692.006	0.0033
692.263	0.0033
692.519	0.0035
692.775	0.0024
693.032	0.0011
693.288	0.0018
693.544	0.002
693.8	0.0025
694.056	0.0028
694.313	0.0028
694.568	0.0029
694.824	0.0037
695.08	0.0038
695.336	0.003
695.592	0.0025
695.847	0.0035
696.103	0.0041
696.359	0.0041
696.614	0.0044
696.869	0.0025
697.125	0.0004
697.38	0.0014
697.635	0.001
697.891	0.0018
698.146	0.002
698.401	0.0038
698.656	0.0028
698.911	0.0046
699.166	0.0034
699.42	0.0031
699.675	0.0029
699.93	0.0025
700.185	0.0027
700.439	0.0039
700.694	0.0036
700.948	0.0039
701.203	0.0043
701.457	0.0039
701.711	0.0034
701.965	0.0019
702.22	0.0015
702.474	0.0018
702.728	0.0003
702.982	0.0002
703.236	0.0001
703.49	0.0016
703.743	0.0006
703.997	0.0008
704.251	0.0022
704.504	0.0016
704.758	0.0011
705.012	0.0026
705.265	0.0021
705.518	0.0016
705.772	0.001
706.025	0.0012
706.278	0.0004
706.531	-0.0002
706.785	-0.0012
707.038	0
707.291	0.0002
707.543	0.0011
707.796	0.0012
708.049	-0.0004
708.302	-0.0008
708.555	0
708.807	0.0008
709.06	0.0007
709.312	-0.0005
709.565	0.0001
709.817	-0.0009
710.069	-0.0002
710.322	0.0009
710.574	0.001
710.826	0.001
711.078	0.002
711.33	0.0018
711.582	0.0017
711.834	0.0022
712.086	0.0036
712.338	0.004
712.59	0.0041
712.841	0.002
713.093	0.0021
713.344	0.0026
713.596	0.002
713.847	0.0031
714.099	0.0039
714.35	0.0044
714.601	0.0041
714.853	0.0053
715.104	0.0048
715.355	0.0025
715.606	0.0035
715.857	0.004
716.108	0.0047
716.359	0.0049
716.609	0.0045
716.86	0.0046
717.111	0.0029
717.361	0.0022
717.612	0.0026
717.863	0.0028
718.113	0.0027
718.363	0.0011
718.614	0.002
718.864	0.0027
719.114	0.0027
719.364	0.0013
719.614	0.0004
719.865	0.0004
720.114	0.0011
720.364	0.0019
720.614	0.0025
720.864	0.0036
721.114	0.0024
721.364	0.0036
721.613	0.004
721.863	0.0045
722.112	0.0039
722.362	0.0042
722.611	0.004
722.86	0.002
723.11	0.0011
723.359	0.0017
723.608	0.0023
723.857	0.0034
724.106	0.0044
724.355	0.0048
724.604	0.0052
724.853	0.0041
725.102	0.0044
725.351	0.0027
725.599	0.0031
725.848	0.0031
726.097	0.0027
726.345	0.0022
726.594	0.0016
726.842	0.0018
727.09	0.0014
727.339	0.0014
727.587	0.0011
727.835	0.0003
728.083	0.0007
728.331	-0.0003
728.579	-0.0006
728.827	0.0011
729.075	0.0012
729.323	0.0022
729.571	0.003
729.818	0.0026
730.066	0.0034
730.314	0.0031
730.561	0.0019
730.809	0.0008
731.056	-0.0001
731.303	0
731.551	0.0018
731.798	0.0011
732.045	0.0015
732.292	0.0021
732.539	0.0023
732.786	0.0017
733.033	0.0028
733.28	0.0029
733.527	0.0048
733.774	0.0032
734.021	0.0044
734.267	0.0048
734.514	0.0041
734.76	0.0044
735.007	0.0065
735.253	0.0067
735.5	0.0054
735.746	0.0058
735.992	0.0053
736.238	0.0052
736.485	0.0064
736.731	0.0061
736.977	0.0047
737.223	0.0042
737.469	0.0057
737.715	0.0058
737.96	0.0073
738.206	0.0067
738.452	0.0088
738.697	0.0086
738.943	0.0079
739.189	0.0062
739.434	0.0036
739.679	0.0037
739.925	0.0041
740.17	0.0041
740.415	0.0036
740.66	0.0047
740.906	0.0049
741.151	0.0048
741.396	0.0042
741.641	0.0068
741.886	0.0068
742.13	0.0065
742.375	0.007
742.62	0.0074
742.865	0.0055
743.109	0.006
743.354	0.006
743.598	0.006
743.843	0.0063
744.087	0.0064
744.331	0.0071
744.576	0.0071
744.82	0.0076
745.064	0.0066
745.308	0.0059
745.552	0.0054
745.796	0.0053
746.04	0.0055
746.284	0.0041
746.528	0.0026
746.771	0.0033
747.015	0.0027
747.259	0.0025
747.502	0.0018
747.746	0.0036
747.989	0.0044
748.233	0.0048
748.476	0.005
748.719	0.0069
748.963	0.0061
749.206	0.0054
749.449	0.0057
749.692	0.0046
749.935	0.0058
750.178	0.0052
750.421	0.0048
750.664	0.0048
750.906	0.0045
751.149	0.0032
751.392	0.0031
751.635	0.001
751.877	0.0012
752.12	0.0004
752.362	0.0009
752.604	0.0003
752.847	0.0019
753.089	0.0022
753.331	0.0029
753.573	0.003
753.816	0.0039
754.058	0.0043
754.3	0.0048
754.542	0.0055
754.783	0.0044
755.025	0.0043
755.267	0.0037
755.509	0.0023
755.75	0.002
755.992	0.0033
756.234	0.0027
756.475	0.0017
756.716	0.0006
756.958	0.0002
757.199	0.0011
757.44	0.0025
757.682	0.0012
757.923	0.0009
758.164	0.0012
758.405	0.0008
758.646	0.0019
758.887	0.0019
759.128	0.0019
759.369	0.0014
759.609	0.0004
759.85	0.0014
760.091	0.002
760.331	0.002
760.572	0.0011
760.812	0.0002
761.053	0.0009
761.293	0.0018
761.533	0.0028
761.774	0.0039
762.014	0.0039
762.254	0.0034
762.494	0.0023
762.734	0.0026
762.974	0.0017
763.214	0.0008
763.454	0.0013
763.694	0.0004
763.933	0.0002
764.173	0.0014
764.413	-0
764.652	0.0006
764.892	0.001
765.131	0.0018
765.371	0.0015
765.61	0.003
765.849	0.0018
766.089	0.003
766.328	0.0039
766.567	0.0038
766.806	0.0044
767.045	0.0051
767.284	0.0045
767.523	0.0047
767.762	0.0055
768.001	0.0036
768.239	0.0024
768.478	0.0021
768.717	0.0028
768.955	0.0031
769.194	0.0026
769.432	0.0035
769.671	0.005
769.909	0.0036
770.148	0.0045
770.386	0.0043
770.624	0.0032
770.862	0.0037
771.1	0.0035
771.338	0.0029
771.576	0.0039
771.814	0.0038
772.052	0.0039
772.29	0.0051
772.528	0.0049
772.765	0.0044
773.003	0.0049
773.24	0.0046
773.478	0.004
773.716	0.0048
773.953	0.0052
774.19	0.005
774.428	0.0047
774.665	0.0046
774.902	0.0049
775.139	0.0042
775.376	0.0044
775.613	0.0041
775.85	0.0045
776.087	0.0046
776.324	0.005
776.561	0.0054
776.798	0.006
777.034	0.0075
777.271	0.0083
777.508	0.008
777.744	0.0072
777.981	0.0068
778.217	0.0069
778.454	0.007
778.69	0.006
778.926	0.0056
779.162	0.0062
779.399	0.005
779.635	0.0052
779.871	0.0043
780.107	0.0057
780.343	0.0062
780.579	0.0069
780.814	0.0064
781.05	0.0059
781.286	0.0047
781.522	0.0048
781.757	0.0069
781.993	0.007
782.228	0.0069
782.464	0.0071
782.699	0.0062
782.934	0.0049
783.17	0.0058
783.405	0.0045
783.64	0.0042
783.875	0.0043
784.11	0.0049
784.345	0.0055
784.58	0.0059
784.815	0.0065
785.05	0.0069
785.285	0.0054
785.52	0.0038
785.754	0.0059
785.989	0.0041
786.223	0.0038
786.458	0.005
786.692	0.0051
786.927	0.0053
787.161	0.0055
787.396	0.0047
787.63	0.0045
787.864	0.0036
788.098	0.0033
788.332	0.0038
788.566	0.0026
788.8	0.0022
789.034	0.0024
789.268	0.0033
789.502	0.0033
789.736	0.0042
789.969	0.0046
790.203	0.004
790.437	0.0036
790.67	0.0032
790.904	0.0038
791.137	0.0023
791.37	0.0027
791.604	0.0016
791.837	0.0025
792.07	0.0017
792.303	0.0035
792.537	0.0028
792.77	0.0027
793.003	0.003
793.236	0.0018
793.469	0.0025
793.701	0.0026
793.934	0.0027
794.167	0.0017
794.4	0.0018
794.632	0.0024
794.865	0.0026
795.097	0.0035
795.33	0.0043
795.562	0.003
795.795	0.0046
796.027	0.0048
796.259	0.0048
796.491	0.0045
796.724	0.0042
796.956	0.0048
797.188	0.0048
797.42	0.004
797.652	0.0037
797.883	0.0032
798.115	0.0024
798.347	0.002
798.579	0.0005
798.81	0.001
799.042	0.0011
799.274	0.0003
799.505	0.0005
799.737	0.0003
799.968	0.0015
800.199	0.0022
800.431	0.0014
800.662	0.0023
800.893	0.0016
801.124	0.0015
801.355	0.0015
801.586	0.0022
801.817	0.0017
802.048	0.0021
802.279	0.0014
802.51	0.0018
802.741	0.0002
802.971	0.0003
803.202	-0.0001
803.433	0.0004
803.663	0.0007
803.894	0.0016
804.124	0.002
804.354	0.002
804.585	0.0023
804.815	0.0022
805.045	0.0031
805.275	0.0017
805.506	-0.0857
805.736	0.1311
805.966	0.0798
806.196	0.1824
