Data from 03 0.2 mM BQDS 0.4 mM K2Cr2O7 1 M H2SO4 5 min_Absorbance_04-07-42-660.txt Node
Date: Wed Dec 08 04:07:42 EST 2021
User: kwabilab-user
Spectrometer: HDX00518
Trigger mode: 0
Integration Time (sec): 5.000000E-2
Scans to average: 50
Nonlinearity correction enabled: false
Boxcar width: 0
Storing dark spectrum: false
XAxis mode: Wavelengths
Number of Pixels in Spectrum: 2068
>>>>>Begin Spectral Data<<<<<
195.27	0.3668
195.642	0.264
196.014	0.327
196.386	0.1884
196.758	0.064
197.129	0.047
197.501	0.0859
197.872	0.1165
198.244	0.1401
198.615	0.1418
198.986	0.1339
199.357	0.1248
199.728	0.1324
200.099	0.124
200.47	0.1341
200.841	0.1492
201.212	0.1502
201.582	0.141
201.953	0.1353
202.323	0.141
202.694	0.1273
203.064	0.1401
203.434	0.1433
203.804	0.1561
204.174	0.1312
204.544	0.1474
204.914	0.1471
205.284	0.1283
205.653	0.1507
206.023	0.1591
206.393	0.1409
206.762	0.1436
207.131	0.1457
207.501	0.1614
207.87	0.1646
208.239	0.1497
208.608	0.1453
208.977	0.1598
209.346	0.1635
209.715	0.1627
210.083	0.167
210.452	0.1769
210.82	0.1787
211.189	0.191
211.557	0.155
211.925	0.1877
212.294	0.2056
212.662	0.2087
213.03	0.2057
213.398	0.1827
213.766	0.2078
214.133	0.2198
214.501	0.234
214.869	0.2331
215.236	0.2621
215.604	0.2526
215.971	0.2783
216.338	0.3058
216.705	0.3199
217.072	0.3376
217.439	0.3302
217.806	0.3898
218.173	0.4068
218.54	0.4417
218.907	0.4622
219.273	0.5132
219.64	0.5377
220.006	0.5744
220.373	0.6038
220.739	0.6502
221.105	0.6797
221.471	0.7142
221.837	0.7446
222.203	0.7949
222.569	0.8202
222.935	0.8543
223.3	0.867
223.666	0.9023
224.031	0.9101
224.397	0.9343
224.762	0.953
225.127	0.9617
225.493	0.9829
225.858	0.9894
226.223	0.9959
226.588	1.0136
226.952	1.0055
227.317	1.0095
227.682	1.0083
228.046	1.0036
228.411	1.0096
228.775	1.0051
229.14	0.9939
229.504	0.9889
229.868	0.9879
230.232	0.9761
230.596	0.9707
230.96	0.9684
231.324	0.9512
231.688	0.9444
232.052	0.9397
232.415	0.9273
232.779	0.9192
233.142	0.9114
233.505	0.9033
233.869	0.894
234.232	0.8824
234.595	0.8717
234.958	0.8603
235.321	0.8499
235.684	0.839
236.047	0.8338
236.409	0.8217
236.772	0.8122
237.134	0.8056
237.497	0.7969
237.859	0.7862
238.222	0.7815
238.584	0.7742
238.946	0.7645
239.308	0.7541
239.67	0.7472
240.032	0.7414
240.393	0.7374
240.755	0.7288
241.117	0.7238
241.478	0.7162
241.84	0.7076
242.201	0.7007
242.562	0.6969
242.924	0.6929
243.285	0.685
243.646	0.6803
244.007	0.6752
244.368	0.671
244.728	0.6679
245.089	0.6631
245.45	0.6578
245.81	0.6548
246.171	0.6508
246.531	0.647
246.891	0.6427
247.252	0.6397
247.612	0.637
247.972	0.6338
248.332	0.633
248.692	0.63
249.051	0.6256
249.411	0.6242
249.771	0.6197
250.13	0.6206
250.49	0.6176
250.849	0.6156
251.208	0.6117
251.568	0.6101
251.927	0.6109
252.286	0.6075
252.645	0.6067
253.004	0.6054
253.363	0.6025
253.721	0.6038
254.08	0.6002
254.439	0.5992
254.797	0.5962
255.155	0.5962
255.514	0.5948
255.872	0.5948
256.23	0.5928
256.588	0.5917
256.946	0.5916
257.304	0.59
257.662	0.5896
258.02	0.5868
258.377	0.5851
258.735	0.5831
259.093	0.5838
259.45	0.5827
259.807	0.5811
260.165	0.581
260.522	0.5801
260.879	0.5765
261.236	0.574
261.593	0.5735
261.95	0.5714
262.306	0.571
262.663	0.5703
263.02	0.569
263.376	0.5669
263.733	0.564
264.089	0.5639
264.445	0.5605
264.802	0.5589
265.158	0.5559
265.514	0.5551
265.87	0.5537
266.226	0.5504
266.581	0.5485
266.937	0.5483
267.293	0.5459
267.648	0.5438
268.004	0.5386
268.359	0.5398
268.714	0.535
269.07	0.5307
269.425	0.5278
269.78	0.5269
270.135	0.5236
270.49	0.5223
270.844	0.5195
271.199	0.5161
271.554	0.5141
271.908	0.5092
272.263	0.5071
272.617	0.5044
272.972	0.501
273.326	0.4977
273.68	0.4956
274.034	0.4904
274.388	0.4898
274.742	0.4845
275.096	0.4827
275.45	0.4784
275.803	0.474
276.157	0.4709
276.51	0.4671
276.864	0.4628
277.217	0.4604
277.571	0.4558
277.924	0.451
278.277	0.4479
278.63	0.4451
278.983	0.4392
279.336	0.4366
279.688	0.4323
280.041	0.4282
280.394	0.4234
280.746	0.4204
281.099	0.416
281.451	0.4115
281.803	0.4084
282.156	0.4043
282.508	0.4015
282.86	0.3973
283.212	0.3922
283.564	0.3883
283.916	0.3834
284.267	0.3798
284.619	0.3765
284.971	0.3718
285.322	0.3685
285.673	0.3644
286.025	0.3612
286.376	0.3566
286.727	0.3529
287.078	0.3481
287.429	0.3451
287.78	0.34
288.131	0.3365
288.482	0.3328
288.833	0.3294
289.183	0.3257
289.534	0.3217
289.884	0.3173
290.235	0.3133
290.585	0.3091
290.935	0.3057
291.285	0.3022
291.635	0.2985
291.985	0.2945
292.335	0.29
292.685	0.2864
293.035	0.2829
293.384	0.2787
293.734	0.2746
294.083	0.2707
294.433	0.268
294.782	0.2641
295.131	0.2607
295.48	0.2577
295.829	0.2549
296.179	0.2501
296.527	0.2463
296.876	0.2434
297.225	0.2415
297.574	0.2362
297.922	0.2332
298.271	0.2306
298.619	0.2271
298.968	0.2243
299.316	0.2219
299.664	0.2187
300.012	0.2157
300.36	0.2121
300.708	0.21
301.056	0.2075
301.404	0.2048
301.752	0.2024
302.099	0.2009
302.447	0.1977
302.794	0.195
303.142	0.1931
303.489	0.1903
303.836	0.1889
304.183	0.1874
304.531	0.1854
304.878	0.1833
305.224	0.181
305.571	0.1795
305.918	0.1776
306.265	0.1759
306.611	0.1744
306.958	0.1732
307.304	0.1717
307.651	0.1701
307.997	0.1695
308.343	0.1679
308.689	0.1672
309.035	0.1664
309.381	0.1654
309.727	0.1641
310.073	0.1634
310.419	0.1631
310.764	0.1621
311.11	0.1622
311.455	0.1611
311.801	0.1606
312.146	0.1604
312.491	0.1595
312.837	0.1589
313.182	0.1595
313.527	0.1587
313.872	0.1586
314.216	0.1587
314.561	0.158
314.906	0.1586
315.251	0.1586
315.595	0.1579
315.94	0.1584
316.284	0.1586
316.628	0.1585
316.972	0.1587
317.317	0.159
317.661	0.1595
318.005	0.1596
318.348	0.1598
318.692	0.1601
319.036	0.1608
319.38	0.1621
319.723	0.1626
320.067	0.1626
320.41	0.1634
320.754	0.1637
321.097	0.1649
321.44	0.166
321.783	0.1669
322.126	0.1669
322.469	0.1683
322.812	0.169
323.155	0.1698
323.498	0.172
323.84	0.1725
324.183	0.1738
324.525	0.1742
324.868	0.1751
325.21	0.1767
325.552	0.1781
325.894	0.1778
326.236	0.1796
326.578	0.181
326.92	0.1825
327.262	0.1832
327.604	0.1846
327.946	0.1853
328.287	0.1871
328.629	0.1889
328.97	0.1889
329.312	0.1909
329.653	0.1926
329.994	0.1938
330.335	0.1946
330.676	0.1962
331.017	0.1972
331.358	0.1985
331.699	0.2005
332.04	0.2011
332.38	0.2024
332.721	0.2048
333.061	0.2049
333.402	0.2065
333.742	0.2085
334.083	0.2094
334.423	0.2108
334.763	0.211
335.103	0.2131
335.443	0.214
335.783	0.2151
336.123	0.2151
336.462	0.2172
336.802	0.2178
337.141	0.2188
337.481	0.2202
337.82	0.2208
338.16	0.2216
338.499	0.2227
338.838	0.2244
339.177	0.2254
339.516	0.2258
339.855	0.2274
340.194	0.2285
340.533	0.2292
340.872	0.23
341.21	0.231
341.549	0.2315
341.887	0.2324
342.226	0.2332
342.564	0.2326
342.902	0.2334
343.24	0.2334
343.578	0.2342
343.916	0.2344
344.254	0.2349
344.592	0.2354
344.93	0.2357
345.268	0.2359
345.605	0.2348
345.943	0.236
346.28	0.2357
346.618	0.236
346.955	0.2369
347.292	0.2364
347.629	0.2372
347.966	0.237
348.303	0.2371
348.64	0.2373
348.977	0.2371
349.314	0.237
349.65	0.2372
349.987	0.2369
350.324	0.2366
350.66	0.2364
350.996	0.2365
351.333	0.2352
351.669	0.2349
352.005	0.2342
352.341	0.2334
352.677	0.2326
353.013	0.2316
353.349	0.2312
353.685	0.23
354.02	0.2288
354.356	0.2283
354.691	0.2268
355.027	0.2264
355.362	0.2247
355.697	0.2246
356.033	0.2234
356.368	0.2227
356.703	0.2209
357.038	0.2201
357.373	0.2195
357.707	0.2187
358.042	0.2175
358.377	0.2169
358.711	0.2155
359.046	0.2154
359.38	0.2135
359.715	0.2123
360.049	0.212
360.383	0.2107
360.717	0.2093
361.051	0.2075
361.385	0.2067
361.719	0.205
362.053	0.2035
362.387	0.2013
362.72	0.2003
363.054	0.1979
363.387	0.1963
363.721	0.1945
364.054	0.1928
364.387	0.1912
364.721	0.1899
365.054	0.1879
365.387	0.1864
365.72	0.1844
366.053	0.1837
366.385	0.181
366.718	0.1803
367.051	0.1781
367.383	0.1772
367.716	0.1758
368.048	0.1746
368.381	0.1732
368.713	0.1721
369.045	0.1709
369.377	0.1691
369.709	0.1678
370.041	0.1664
370.373	0.1658
370.705	0.1641
371.037	0.1627
371.368	0.1601
371.7	0.1589
372.031	0.1579
372.363	0.1551
372.694	0.1536
373.025	0.1519
373.356	0.1502
373.688	0.1478
374.019	0.1458
374.35	0.1436
374.68	0.1418
375.011	0.1397
375.342	0.1379
375.673	0.1365
376.003	0.134
376.334	0.1327
376.664	0.1308
376.995	0.1299
377.325	0.1284
377.655	0.127
377.985	0.1255
378.315	0.1238
378.645	0.1225
378.975	0.1211
379.305	0.1196
379.635	0.1189
379.964	0.1171
380.294	0.1162
380.623	0.1148
380.953	0.1134
381.282	0.1123
381.611	0.1114
381.941	0.1096
382.27	0.1086
382.599	0.1066
382.928	0.1055
383.257	0.104
383.585	0.1032
383.914	0.1011
384.243	0.1004
384.571	0.0978
384.9	0.0963
385.228	0.0949
385.557	0.0932
385.885	0.0922
386.213	0.0904
386.541	0.0887
386.869	0.0874
387.197	0.0856
387.525	0.084
387.853	0.0827
388.181	0.0818
388.508	0.0808
388.836	0.0799
389.164	0.0779
389.491	0.0766
389.818	0.076
390.146	0.0755
390.473	0.073
390.8	0.0722
391.127	0.0716
391.454	0.071
391.781	0.0691
392.108	0.0684
392.435	0.067
392.761	0.0655
393.088	0.0652
393.415	0.0644
393.741	0.0652
394.067	0.0633
394.394	0.0629
394.72	0.0621
395.046	0.0609
395.372	0.0598
395.698	0.0588
396.024	0.0581
396.35	0.0575
396.676	0.057
397.001	0.0558
397.327	0.055
397.653	0.0539
397.978	0.0529
398.303	0.0519
398.629	0.0516
398.954	0.0511
399.279	0.0507
399.604	0.05
399.929	0.0491
400.254	0.0488
400.579	0.0488
400.904	0.0474
401.229	0.047
401.553	0.0457
401.878	0.045
402.202	0.0449
402.527	0.0445
402.851	0.0442
403.175	0.0437
403.5	0.0432
403.824	0.0435
404.148	0.0427
404.472	0.043
404.796	0.0421
405.119	0.0417
405.443	0.0411
405.767	0.0409
406.09	0.0405
406.414	0.0402
406.737	0.0396
407.061	0.0405
407.384	0.0408
407.707	0.0398
408.03	0.0398
408.353	0.0403
408.676	0.0395
408.999	0.0395
409.322	0.0395
409.645	0.0402
409.968	0.0386
410.29	0.0391
410.613	0.0385
410.935	0.0384
411.258	0.0393
411.58	0.0385
411.902	0.0383
412.224	0.0388
412.546	0.0378
412.868	0.0382
413.19	0.0384
413.512	0.038
413.834	0.0385
414.156	0.0386
414.477	0.0385
414.799	0.0382
415.121	0.0383
415.442	0.0388
415.763	0.0386
416.085	0.0382
416.406	0.0387
416.727	0.0383
417.048	0.038
417.369	0.0384
417.69	0.0383
418.011	0.0384
418.331	0.0382
418.652	0.0386
418.973	0.0385
419.293	0.0388
419.614	0.039
419.934	0.0386
420.254	0.0388
420.574	0.0385
420.895	0.0384
421.215	0.0378
421.535	0.0378
421.855	0.0382
422.174	0.038
422.494	0.0384
422.814	0.0397
423.134	0.0394
423.453	0.0386
423.773	0.0386
424.092	0.0388
424.411	0.0386
424.731	0.0393
425.05	0.0395
425.369	0.0392
425.688	0.0392
426.007	0.0393
426.326	0.0399
426.644	0.04
426.963	0.0399
427.282	0.0402
427.6	0.0396
427.919	0.0398
428.237	0.0402
428.556	0.0406
428.874	0.0406
429.192	0.0396
429.51	0.0404
429.828	0.0401
430.146	0.0402
430.464	0.0398
430.782	0.0401
431.1	0.0402
431.418	0.0402
431.735	0.0403
432.053	0.0407
432.37	0.0398
432.688	0.04
433.005	0.0403
433.322	0.0405
433.639	0.0403
433.957	0.0404
434.274	0.0406
434.591	0.0406
434.907	0.0408
435.224	0.0404
435.541	0.0406
435.858	0.0415
436.174	0.0416
436.491	0.0412
436.807	0.0414
437.124	0.0407
437.44	0.0402
437.756	0.0401
438.072	0.0403
438.388	0.0415
438.704	0.0406
439.02	0.0407
439.336	0.041
439.652	0.0404
439.968	0.0403
440.283	0.0407
440.599	0.0408
440.914	0.0404
441.23	0.0402
441.545	0.0408
441.86	0.0404
442.175	0.041
442.491	0.0405
442.806	0.0401
443.121	0.0407
443.435	0.0403
443.75	0.0399
444.065	0.0402
444.38	0.0402
444.694	0.0403
445.009	0.0399
445.323	0.0407
445.638	0.04
445.952	0.0407
446.266	0.0397
446.58	0.0407
446.894	0.0407
447.208	0.0408
447.522	0.0408
447.836	0.0392
448.15	0.0393
448.464	0.0391
448.777	0.0393
449.091	0.0387
449.404	0.0397
449.718	0.0399
450.031	0.0393
450.345	0.0388
450.658	0.0388
450.971	0.0396
451.284	0.0386
451.597	0.0395
451.91	0.0393
452.223	0.0388
452.535	0.0387
452.848	0.0385
453.161	0.0384
453.473	0.0392
453.786	0.0386
454.098	0.0388
454.411	0.0379
454.723	0.0383
455.035	0.0377
455.347	0.0384
455.659	0.0379
455.971	0.0375
456.283	0.0377
456.595	0.0372
456.907	0.0377
457.218	0.038
457.53	0.0372
457.841	0.0371
458.153	0.0363
458.464	0.0366
458.776	0.0353
459.087	0.0356
459.398	0.0363
459.709	0.0358
460.02	0.0357
460.331	0.0355
460.642	0.0349
460.953	0.0355
461.263	0.035
461.574	0.0354
461.885	0.0347
462.195	0.0352
462.506	0.0347
462.816	0.0343
463.126	0.0337
463.437	0.0339
463.747	0.0331
464.057	0.0336
464.367	0.0337
464.677	0.0334
464.987	0.0337
465.296	0.0322
465.606	0.0325
465.916	0.0323
466.225	0.0321
466.535	0.0319
466.844	0.0316
467.154	0.0313
467.463	0.0315
467.772	0.0326
468.081	0.0309
468.39	0.0311
468.699	0.0314
469.008	0.0311
469.317	0.0301
469.626	0.0307
469.935	0.0306
470.243	0.0306
470.552	0.0305
470.86	0.0307
471.169	0.0302
471.477	0.0301
471.785	0.0298
472.093	0.0296
472.402	0.0296
472.71	0.0284
473.018	0.0281
473.326	0.0276
473.633	0.028
473.941	0.0278
474.249	0.0269
474.556	0.0281
474.864	0.0267
475.171	0.027
475.479	0.0275
475.786	0.0276
476.094	0.0267
476.401	0.0266
476.708	0.0265
477.015	0.0265
477.322	0.0262
477.629	0.0262
477.936	0.0259
478.242	0.0257
478.549	0.0255
478.856	0.0252
479.162	0.0255
479.469	0.0256
479.775	0.025
480.081	0.0241
480.388	0.0249
480.694	0.0236
481	0.0238
481.306	0.0241
481.612	0.0243
481.918	0.0227
482.224	0.0235
482.53	0.0228
482.835	0.0229
483.141	0.0215
483.446	0.0218
483.752	0.0219
484.057	0.0206
484.363	0.0208
484.668	0.0204
484.973	0.0208
485.278	0.0204
485.583	0.0205
485.888	0.0197
486.193	0.0199
486.498	0.0195
486.803	0.0195
487.107	0.0197
487.412	0.0191
487.717	0.0188
488.021	0.0193
488.325	0.0189
488.63	0.0181
488.934	0.0183
489.238	0.0188
489.542	0.0185
489.846	0.0172
490.15	0.018
490.454	0.0183
490.758	0.0178
491.062	0.0169
491.366	0.0169
491.669	0.0173
491.973	0.0165
492.276	0.0167
492.58	0.0157
492.883	0.0166
493.186	0.0172
493.489	0.0167
493.792	0.0166
494.096	0.0161
494.399	0.0156
494.701	0.0166
495.004	0.0155
495.307	0.0149
495.61	0.0144
495.912	0.0141
496.215	0.0137
496.517	0.0144
496.82	0.0136
497.122	0.0139
497.424	0.0134
497.727	0.0135
498.029	0.0141
498.331	0.0146
498.633	0.014
498.935	0.0139
499.237	0.0137
499.538	0.0122
499.84	0.013
500.142	0.0129
500.443	0.0128
500.745	0.0119
501.046	0.0123
501.348	0.0118
501.649	0.0127
501.95	0.0113
502.251	0.0117
502.552	0.0111
502.853	0.011
503.154	0.0111
503.455	0.0105
503.756	0.0111
504.057	0.0115
504.357	0.0112
504.658	0.0107
504.958	0.0097
505.259	0.0113
505.559	0.0109
505.859	0.0098
506.16	0.0099
506.46	0.0103
506.76	0.0106
507.06	0.0091
507.36	0.0099
507.66	0.0106
507.96	0.0101
508.259	0.0091
508.559	0.0086
508.859	0.0093
509.158	0.0085
509.457	0.0086
509.757	0.0088
510.056	0.0085
510.355	0.0087
510.655	0.0076
510.954	0.0089
511.253	0.0084
511.552	0.0087
511.851	0.0076
512.149	0.0064
512.448	0.0075
512.747	0.0095
513.045	0.0071
513.344	0.008
513.642	0.008
513.941	0.0074
514.239	0.0076
514.537	0.0072
514.836	0.0074
515.134	0.0064
515.432	0.0066
515.73	0.0074
516.028	0.0061
516.326	0.0066
516.623	0.0065
516.921	0.0064
517.219	0.0072
517.516	0.0063
517.814	0.0059
518.111	0.0064
518.409	0.0081
518.706	0.0068
519.003	0.0071
519.3	0.0055
519.597	0.0064
519.894	0.0066
520.191	0.0082
520.488	0.0068
520.785	0.0052
521.082	0.0057
521.378	0.006
521.675	0.005
521.971	0.0059
522.268	0.0055
522.564	0.0057
522.861	0.0053
523.157	0.0053
523.453	0.0055
523.749	0.0057
524.045	0.0063
524.341	0.0056
524.637	0.0051
524.933	0.0048
525.229	0.0052
525.524	0.0042
525.82	0.005
526.115	0.0049
526.411	0.0043
526.706	0.005
527.002	0.0046
527.297	0.0034
527.592	0.006
527.887	0.0063
528.182	0.0051
528.477	0.0061
528.772	0.0047
529.067	0.0047
529.362	0.0049
529.657	0.0047
529.951	0.0047
530.246	0.0036
530.54	0.0021
530.835	0.0032
531.129	0.0033
531.423	0.0043
531.718	0.0039
532.012	0.0036
532.306	0.0041
532.6	0.0035
532.894	0.0036
533.188	0.004
533.482	0.0031
533.775	0.0039
534.069	0.003
534.363	0.0023
534.656	0.0027
534.95	0.0023
535.243	0.0035
535.536	0.0033
535.83	0.0037
536.123	0.0024
536.416	0.0035
536.709	0.003
537.002	0.004
537.295	0.0035
537.588	0.0046
537.881	0.0045
538.173	0.0028
538.466	0.0026
538.759	0.0028
539.051	0.0022
539.344	0.0023
539.636	0.0025
539.928	0.0028
540.22	0.0038
540.513	0.0026
540.805	0.0034
541.097	0.0037
541.389	0.0033
541.681	0.002
541.972	0.0033
542.264	0.0017
542.556	0.0025
542.847	0.0034
543.139	0.0025
543.431	0.0038
543.722	0.0031
544.013	0.0041
544.305	0.0045
544.596	0.0046
544.887	0.0031
545.178	0.0025
545.469	0.0036
545.76	0.0032
546.051	0.0024
546.342	0.0041
546.632	0.003
546.923	0.0023
547.214	0.0032
547.504	0.0026
547.795	0.0033
548.085	0.0035
548.375	0.0018
548.666	0.0028
548.956	0.0024
549.246	0.0026
549.536	0.0019
549.826	0.004
550.116	0.003
550.406	0.0032
550.695	0.0044
550.985	0.0036
551.275	0.0041
551.564	0.0032
551.854	0.0037
552.143	0.004
552.433	0.0039
552.722	0.0035
553.011	0.0037
553.3	0.0045
553.589	0.0037
553.879	0.0024
554.167	0.0036
554.456	0.0029
554.745	0.0026
555.034	0.0027
555.323	0.0021
555.611	0.0027
555.9	0.0032
556.188	0.0032
556.477	0.0029
556.765	0.0022
557.053	0.0028
557.342	0.0025
557.63	0.0035
557.918	0.0034
558.206	0.0036
558.494	0.0033
558.782	0.003
559.069	0.0028
559.357	0.0033
559.645	0.0022
559.932	0.003
560.22	0.0035
560.507	0.0032
560.795	0.0032
561.082	0.0031
561.37	0.0022
561.657	0.0027
561.944	0.0037
562.231	0.0032
562.518	0.0014
562.805	0.0031
563.092	0.0034
563.379	0.0039
563.665	0.0024
563.952	0.0035
564.239	0.0038
564.525	0.0044
564.811	0.0035
565.098	0.0036
565.384	0.0042
565.67	0.0034
565.957	0.0038
566.243	0.0035
566.529	0.0041
566.815	0.0049
567.101	0.0021
567.387	0.0031
567.672	0.0031
567.958	0.0035
568.244	0.0029
568.529	0.0038
568.815	0.0034
569.1	0.0039
569.386	0.0029
569.671	0.0022
569.956	0.0028
570.242	0.0017
570.527	0.0028
570.812	0.003
571.097	0.0035
571.382	0.003
571.666	0.0024
571.951	0.0027
572.236	0.0031
572.521	0.0031
572.805	0.0029
573.09	0.0029
573.374	0.0018
573.659	0.0016
573.943	0.0029
574.227	0.0022
574.511	0.0026
574.795	0.0028
575.079	0.0025
575.363	0.003
575.647	0.0036
575.931	0.0032
576.215	0.0034
576.499	0.002
576.782	0.0026
577.066	0.0024
577.349	0.003
577.633	0.0036
577.916	0.003
578.2	0.0034
578.483	0.0036
578.766	0.0023
579.049	0.0034
579.332	0.0027
579.615	0.0026
579.898	0.0029
580.181	0.0027
580.464	0.0029
580.746	0.0017
581.029	0.003
581.312	0.0021
581.594	0.0022
581.877	0.0029
582.159	0.0025
582.441	0.003
582.724	0.0032
583.006	0.0022
583.288	0.0025
583.57	0.0023
583.852	0.0018
584.134	0.0022
584.416	0.0033
584.697	0.002
584.979	0.0024
585.261	0.0024
585.542	0.0024
585.824	0.002
586.105	0.0029
586.387	0.0018
586.668	0.0024
586.949	0.0026
587.231	0.0018
587.512	0.0031
587.793	0.0025
588.074	0.0026
588.355	0.0024
588.636	0.0036
588.916	0.0026
589.197	0.0034
589.478	0.0035
589.758	0.0027
590.039	0.0032
590.319	0.003
590.6	0.0018
590.88	0.0019
591.16	0.0019
591.441	0.0032
591.721	0.0027
592.001	0.0028
592.281	0.0028
592.561	0.0028
592.841	0.0027
593.12	0.0026
593.4	0.0018
593.68	0.0021
593.959	0.0027
594.239	0.003
594.518	0.0018
594.798	0.0021
595.077	0.0026
595.356	0.0022
595.636	0.0025
595.915	0.0028
596.194	0.0032
596.473	0.002
596.752	0.0023
597.031	0.002
597.31	0.0028
597.588	0.0023
597.867	0.0025
598.146	0.0021
598.424	0.0022
598.703	0.0027
598.981	0.003
599.259	0.003
599.538	0.0032
599.816	0.0027
600.094	0.0031
600.372	0.0028
600.65	0.0033
600.928	0.003
601.206	0.0031
601.484	0.003
601.762	0.0028
602.04	0.0022
602.317	0.0036
602.595	0.0028
602.872	0.0025
603.15	0.0024
603.427	0.0025
603.704	0.0014
603.982	0.0018
604.259	0.0016
604.536	0.002
604.813	0.0017
605.09	0.0016
605.367	0.0024
605.644	0.0019
605.921	0.0019
606.197	0.002
606.474	0.0017
606.751	0.0022
607.027	0.002
607.304	0.0015
607.58	0.0018
607.856	0.0013
608.133	0.0025
608.409	0.0022
608.685	0.002
608.961	0.0027
609.237	0.0028
609.513	0.0019
609.789	0.0025
610.065	0.0019
610.341	0.0023
610.616	0.0023
610.892	0.0022
611.167	0.0037
611.443	0.0025
611.718	0.0027
611.994	0.0026
612.269	0.0024
612.544	0.0024
612.819	0.002
613.095	0.0031
613.37	0.0026
613.645	0.0019
613.919	0.0016
614.194	0.0033
614.469	0.001
614.744	0.0014
615.019	0.0012
615.293	0.0008
615.568	0.0004
615.842	0.0013
616.116	0
616.391	-0.0002
616.665	0.0017
616.939	0.001
617.213	0.001
617.488	0.0021
617.762	0.0017
618.035	0.0008
618.309	0.0015
618.583	0.0019
618.857	0.0015
619.131	0.0026
619.404	0.001
619.678	0.0012
619.951	0.0006
620.225	0.0007
620.498	0.0019
620.771	0.0018
621.045	0.0032
621.318	0.0027
621.591	0.0022
621.864	0.002
622.137	0.0013
622.41	0.0015
622.683	0.0002
622.956	0.0015
623.228	0.0028
623.501	0.0028
623.774	0.0029
624.046	0.0013
624.319	0.0019
624.591	0.001
624.863	0.0023
625.136	0.001
625.408	0.0012
625.68	0.0012
625.952	0.0011
626.224	0.0009
626.496	0.001
626.768	0.0001
627.04	0.0007
627.311	0.0011
627.583	0.0013
627.855	0.0021
628.126	0.0022
628.398	0.0023
628.669	0.0018
628.941	0.0013
629.212	0.0014
629.483	0.0009
629.755	0.0012
630.026	-0.0001
630.297	-0.0009
630.568	-0.0006
630.839	-0.0006
631.11	-0.0002
631.38	-0.0006
631.651	0
631.922	-0.0002
632.192	-0.0008
632.463	0.0001
632.733	0.0013
633.004	0.0016
633.274	0.0003
633.545	0.0017
633.815	0.0034
634.085	0.0024
634.355	0.0016
634.625	0.003
634.895	0.0024
635.165	0.0017
635.435	0.0025
635.705	0.0024
635.974	0.0006
636.244	0.0012
636.514	0.0019
636.783	0.0015
637.053	0.0022
637.322	0.0012
637.591	0.0021
637.861	0.0016
638.13	0.0019
638.399	0.0015
638.668	0.0027
638.937	0.0021
639.206	0.0019
639.475	0.0006
639.744	0.0021
640.013	0.0021
640.281	0.0027
640.55	0.0031
640.819	0.0021
641.087	0.0035
641.356	0.0013
641.624	0.0011
641.892	0.0026
642.161	0.002
642.429	0.003
642.697	0.0028
642.965	0.0031
643.233	0.0025
643.501	0.0025
643.769	0.0014
644.037	0.0011
644.305	0.0008
644.572	-0.0006
644.84	0.0009
645.108	-0
645.375	0.0001
645.643	0.0005
645.91	0.0006
646.177	0.003
646.445	0.0045
646.712	0.0039
646.979	0.0041
647.246	0.0041
647.513	0.0042
647.78	0.0036
648.047	0.0036
648.314	0.0027
648.58	0.0021
648.847	0.0011
649.114	0.0006
649.38	0.001
649.647	0.0006
649.913	0.0008
650.18	0.0012
650.446	0.0011
650.712	0.0021
650.978	0.002
651.245	0.0025
651.511	0.0032
651.777	0.0021
652.043	0.002
652.309	0.0029
652.574	0.0036
652.84	0.002
653.106	0.002
653.371	0.0011
653.637	0.0018
653.903	0.0033
654.168	0.0028
654.433	0.0037
654.699	0.0032
654.964	0.0031
655.229	0.0029
655.494	0.0022
655.759	0.0001
656.024	0.0004
656.289	-0
656.554	-0.0024
656.819	-0.0005
657.084	0.0024
657.349	0.0036
657.613	0.0034
657.878	0.0025
658.142	0.0036
658.407	0.0034
658.671	0.0033
658.936	0.0021
659.2	0.0016
659.464	0.0013
659.728	0.0011
659.992	0.0018
660.256	0.0008
660.52	0.0003
660.784	-0.0002
661.048	-0.0009
661.312	-0.0015
661.575	-0.0007
661.839	-0.0019
662.103	-0.0012
662.366	-0.0016
662.63	-0.001
662.893	-0.0006
663.156	-0.0002
663.42	-0.0001
663.683	0.0003
663.946	0.0016
664.209	0.0032
664.472	0.0024
664.735	0.0026
664.998	0.0027
665.261	0.0014
665.524	0.0008
665.786	0.0014
666.049	0.0021
666.312	0.0013
666.574	0.0027
666.837	0.001
667.099	0.0006
667.361	0.0003
667.624	0.0002
667.886	0.0012
668.148	0.0011
668.41	0.0024
668.672	0.0004
668.934	0.0015
669.196	0.0018
669.458	0.0014
669.72	0.0014
669.982	0.0019
670.243	0.0034
670.505	0.0025
670.766	0.0021
671.028	0.0026
671.289	0.0017
671.551	0.0014
671.812	0.0005
672.073	0.0007
672.334	0.0002
672.596	0.0006
672.857	0.0006
673.118	0.0006
673.379	-0.0002
673.639	-0.0001
673.9	-0.0003
674.161	-0.0015
674.422	-0.0018
674.682	-0.0023
674.943	-0.0019
675.203	-0.001
675.464	-0.0005
675.724	0.0004
675.985	0.0006
676.245	0.001
676.505	0.0016
676.765	0.0004
677.025	0.0007
677.285	0.0011
677.545	0.0018
677.805	0.002
678.065	0.0026
678.325	0.0025
678.585	0.0017
678.844	0.0012
679.104	0.0022
679.363	0.002
679.623	0.002
679.882	0.0026
680.142	0.0021
680.401	0.0023
680.66	0.0035
680.919	0.0037
681.178	0.0041
681.437	0.0033
681.696	0.0027
681.955	0.0027
682.214	0.0041
682.473	0.0037
682.732	0.0039
682.99	0.0018
683.249	0.0025
683.508	0.0031
683.766	0.0021
684.024	0.0028
684.283	0.0037
684.541	0.0031
684.799	0.0033
685.058	0.0025
685.316	0.0021
685.574	0.0028
685.832	0.0028
686.09	0.0028
686.348	0.0034
686.606	0.0025
686.863	0.0029
687.121	0.0039
687.379	0.0028
687.636	0.0031
687.894	0.0034
688.151	0.0039
688.409	0.0039
688.666	0.0031
688.923	0.0031
689.181	0.0023
689.438	0.0014
689.695	0.0017
689.952	0.0005
690.209	0.0014
690.466	0.0012
690.723	0.0037
690.979	0.0025
691.236	0.0026
691.493	0.002
691.75	0.0028
692.006	0.0021
692.263	0.0027
692.519	0.0025
692.775	0.0016
693.032	-0.0001
693.288	0.0012
693.544	0.0017
693.8	0.0007
694.056	0.0012
694.313	0.0017
694.568	0.0023
694.824	0.0017
695.08	0.0036
695.336	0.0029
695.592	0.0014
695.847	0.0022
696.103	0.0021
696.359	0.0021
696.614	0.0024
696.869	0.0021
697.125	0.0012
697.38	0.0007
697.635	-0.0003
697.891	0.0007
698.146	0.0004
698.401	0.0024
698.656	0.0017
698.911	0.0029
699.166	0.0026
699.42	0.002
699.675	0.0021
699.93	0.0009
700.185	0.0023
700.439	0.0027
700.694	0.0022
700.948	0.0023
701.203	0.0031
701.457	0.0019
701.711	0.0014
701.965	0.0002
702.22	0.0004
702.474	0
702.728	-0.0011
702.982	-0.001
703.236	-0.0002
703.49	0.0002
703.743	0.0007
703.997	0
704.251	0.0008
704.504	0.0003
704.758	-0.0001
705.012	0.0006
705.265	0.0004
705.518	0.0005
705.772	-0.0009
706.025	-0.0004
706.278	-0.0008
706.531	-0.0018
706.785	-0.0021
707.038	-0.0004
707.291	-0.0005
707.543	0.0001
707.796	0.0005
708.049	0.0002
708.302	-0.0004
708.555	-0
708.807	0.0006
709.06	-0.0002
709.312	-0.0018
709.565	-0.0013
709.817	-0.0019
710.069	-0.0012
710.322	-0.0004
710.574	0.0004
710.826	0.0003
711.078	0.0009
711.33	0.0003
711.582	0.0003
711.834	0.0014
712.086	0.0018
712.338	0.003
712.59	0.0023
712.841	0.0021
713.093	0.0015
713.344	0.0019
713.596	0.0018
713.847	0.0024
714.099	0.0024
714.35	0.003
714.601	0.0034
714.853	0.0043
715.104	0.0036
715.355	0.0023
715.606	0.0023
715.857	0.003
716.108	0.0033
716.359	0.0029
716.609	0.0034
716.86	0.0022
717.111	0.0022
717.361	0.0004
717.612	0.0006
717.863	0.0012
718.113	0.001
718.363	0.0007
718.614	0.0006
718.864	-0
719.114	0.0003
719.364	0.0002
719.614	-0.0007
719.865	-0.001
720.114	-0.0008
720.364	0.0006
720.614	0.0017
720.864	0.0025
721.114	0.0018
721.364	0.0024
721.613	0.0032
721.863	0.0036
722.112	0.0036
722.362	0.0039
722.611	0.0036
722.86	0.0016
723.11	0.0011
723.359	0.0007
723.608	0.0027
723.857	0.0028
724.106	0.0048
724.355	0.0043
724.604	0.0052
724.853	0.0039
725.102	0.0027
725.351	0.0025
725.599	0.0024
725.848	0.0023
726.097	0.0012
726.345	0.0018
726.594	0.0013
726.842	-0.0001
727.09	0.0007
727.339	0.0006
727.587	0.0004
727.835	-0.0007
728.083	-0.0008
728.331	-0.0014
728.579	-0.0012
728.827	-0.0005
729.075	0.0002
729.323	0.0018
729.571	0.0018
729.818	0.0022
730.066	0.0022
730.314	0.0023
730.561	0.0003
730.809	0.0003
731.056	-0.0004
731.303	-0.0008
731.551	0.0015
731.798	-0.0001
732.045	0.0006
732.292	0.0009
732.539	0.0013
732.786	0.0011
733.033	0.0019
733.28	0.0022
733.527	0.0039
733.774	0.0027
734.021	0.003
734.267	0.0039
734.514	0.0033
734.76	0.0032
735.007	0.0047
735.253	0.0045
735.5	0.0043
735.746	0.0047
735.992	0.0046
736.238	0.0042
736.485	0.0051
736.731	0.0048
736.977	0.0042
737.223	0.0032
737.469	0.0037
737.715	0.0044
737.96	0.0061
738.206	0.0053
738.452	0.0075
738.697	0.0075
738.943	0.0072
739.189	0.006
739.434	0.0033
739.679	0.0031
739.925	0.0031
740.17	0.002
740.415	0.0022
740.66	0.0031
740.906	0.0024
741.151	0.0026
741.396	0.0026
741.641	0.0054
741.886	0.006
742.13	0.0057
742.375	0.0057
742.62	0.0066
742.865	0.0048
743.109	0.0044
743.354	0.004
743.598	0.0047
743.843	0.0052
744.087	0.0043
744.331	0.0057
744.576	0.0044
744.82	0.0051
745.064	0.0049
745.308	0.003
745.552	0.0033
745.796	0.0033
746.04	0.0029
746.284	0.0014
746.528	0.0006
746.771	0.0016
747.015	0.0009
747.259	0.0019
747.502	0.0013
747.746	0.0017
747.989	0.002
748.233	0.0033
748.476	0.0027
748.719	0.0043
748.963	0.005
749.206	0.0042
749.449	0.0055
749.692	0.0032
749.935	0.0055
750.178	0.0041
750.421	0.0036
750.664	0.0043
750.906	0.0034
751.149	0.002
751.392	0.0012
751.635	0.0003
751.877	-0.0009
752.12	-0.0006
752.362	0.0003
752.604	-0.0002
752.847	0.0005
753.089	0.0009
753.331	0.0016
753.573	0.0022
753.816	0.0029
754.058	0.0033
754.3	0.0037
754.542	0.0044
754.783	0.0031
755.025	0.0035
755.267	0.0022
755.509	0.0019
755.75	0.0013
755.992	0.0019
756.234	0.0011
756.475	0.0006
756.716	0.0003
756.958	0.0003
757.199	0.0002
757.44	0.0016
757.682	0.0014
757.923	0.0004
758.164	0.0003
758.405	-0.0003
758.646	0.0001
758.887	0.0009
759.128	0.0009
759.369	0.0001
759.609	0.0002
759.85	0.0003
760.091	0.0012
760.331	0.0006
760.572	-0.0001
760.812	-0.0003
761.053	0.0003
761.293	0.001
761.533	0.0014
761.774	0.0017
762.014	0.0015
762.254	0.0017
762.494	0.0009
762.734	0.0009
762.974	0.0009
763.214	0.0005
763.454	-0.0001
763.694	-0.0002
763.933	-0.001
764.173	0.0007
764.413	0.0002
764.652	0.001
764.892	0.0013
765.131	0.0013
765.371	0.0013
765.61	0.0018
765.849	0.0009
766.089	0.0016
766.328	0.0024
766.567	0.002
766.806	0.0023
767.045	0.0028
767.284	0.0032
767.523	0.0033
767.762	0.0043
768.001	0.0034
768.239	0.0029
768.478	0.0022
768.717	0.0021
768.955	0.0033
769.194	0.0018
769.432	0.0026
769.671	0.0032
769.909	0.0025
770.148	0.0026
770.386	0.0034
770.624	0.0025
770.862	0.0025
771.1	0.0023
771.338	0.0022
771.576	0.0022
771.814	0.0024
772.052	0.0023
772.29	0.0028
772.528	0.0039
772.765	0.0037
773.003	0.0037
773.24	0.0032
773.478	0.0023
773.716	0.0032
773.953	0.0031
774.19	0.0028
774.428	0.0026
774.665	0.0034
774.902	0.0039
775.139	0.0024
775.376	0.003
775.613	0.0025
775.85	0.0038
776.087	0.0027
776.324	0.0029
776.561	0.0036
776.798	0.0046
777.034	0.0062
777.271	0.0055
777.508	0.0069
777.744	0.006
777.981	0.0049
778.217	0.0057
778.454	0.0058
778.69	0.0046
778.926	0.0051
779.162	0.0045
779.399	0.004
779.635	0.0038
779.871	0.0034
780.107	0.0048
780.343	0.0054
780.579	0.0052
780.814	0.0047
781.05	0.0045
781.286	0.0046
781.522	0.004
781.757	0.0058
781.993	0.0062
782.228	0.0061
782.464	0.0057
782.699	0.0043
782.934	0.0041
783.17	0.0046
783.405	0.0038
783.64	0.0036
783.875	0.0038
784.11	0.0036
784.345	0.0039
784.58	0.0043
784.815	0.0044
785.05	0.0048
785.285	0.0034
785.52	0.0023
785.754	0.003
785.989	0.0028
786.223	0.0023
786.458	0.0028
786.692	0.0031
786.927	0.0019
787.161	0.0022
787.396	0.0029
787.63	0.0016
787.864	0.0011
788.098	0.0019
788.332	0.0011
788.566	0.0014
788.8	0.0007
789.034	0.0012
789.268	0.0015
789.502	0.0018
789.736	0.0025
789.969	0.0023
790.203	0.0024
790.437	0.0017
790.67	0.0018
790.904	0.002
791.137	0.0008
791.37	0.0008
791.604	0.0002
791.837	0.0006
792.07	0.0001
792.303	0.0011
792.537	0.0006
792.77	0.001
793.003	0.0011
793.236	-0.0001
793.469	-0
793.701	0.0009
793.934	0.0007
794.167	0.0012
794.4	0.0002
794.632	0.001
794.865	0.0001
795.097	0.0011
795.33	0.002
795.562	0.0015
795.795	0.0022
796.027	0.0022
796.259	0.002
796.491	0.0016
796.724	0.0012
796.956	0.0011
797.188	0.0019
797.42	0.0014
797.652	0.0016
797.883	0.0004
798.115	0.0007
798.347	0.0001
798.579	-0.0013
798.81	-0.0017
799.042	-0.0005
799.274	-0.0023
799.505	-0.0017
799.737	-0.0027
799.968	-0.0019
800.199	-0.0007
800.431	-0.0009
800.662	-0.0008
800.893	-0.0007
801.124	-0.0001
801.355	-0.0004
801.586	-0.0003
801.817	-0.0004
802.048	-0.0006
802.279	-0
802.51	-0.0001
802.741	-0.0019
802.971	-0.0012
803.202	-0.0019
803.433	-0.002
803.663	-0.0016
803.894	0.0005
804.124	-0.0001
804.354	-0
804.585	0.0001
804.815	-0.0004
805.045	-0.0002
805.275	-0.0014
805.506	-0.0618
805.736	0.108
805.966	0.0646
806.196	0.1224
