Data from 03 0.2 mM BQDS 0.4 mM K2Cr2O7 1 M H2SO4 5 min_Absorbance_09-12-42-419.txt Node
Date: Wed Dec 08 09:12:42 EST 2021
User: kwabilab-user
Spectrometer: HDX00518
Trigger mode: 0
Integration Time (sec): 5.000000E-2
Scans to average: 50
Nonlinearity correction enabled: false
Boxcar width: 0
Storing dark spectrum: false
XAxis mode: Wavelengths
Number of Pixels in Spectrum: 2068
>>>>>Begin Spectral Data<<<<<
195.27	0.0074
195.642	0.0391
196.014	-0.0215
196.386	0.016
196.758	0.0332
197.129	0.0175
197.501	0.0287
197.872	0.0734
198.244	0.0958
198.615	0.0996
198.986	0.1031
199.357	0.0957
199.728	0.1103
200.099	0.0991
200.47	0.0936
200.841	0.0978
201.212	0.1063
201.582	0.0956
201.953	0.102
202.323	0.1053
202.694	0.0902
203.064	0.1209
203.434	0.0944
203.804	0.1151
204.174	0.1007
204.544	0.1054
204.914	0.0974
205.284	0.0973
205.653	0.0992
206.023	0.1068
206.393	0.1031
206.762	0.1047
207.131	0.1073
207.501	0.1218
207.87	0.1126
208.239	0.1211
208.608	0.1068
208.977	0.1074
209.346	0.1236
209.715	0.1285
210.083	0.1293
210.452	0.1228
210.82	0.1334
211.189	0.1346
211.557	0.121
211.925	0.1427
212.294	0.1431
212.662	0.1475
213.03	0.144
213.398	0.1465
213.766	0.1824
214.133	0.1806
214.501	0.1965
214.869	0.191
215.236	0.2086
215.604	0.2214
215.971	0.2263
216.338	0.2566
216.705	0.2719
217.072	0.3046
217.439	0.3047
217.806	0.3402
218.173	0.3575
218.54	0.3875
218.907	0.4238
219.273	0.4663
219.64	0.4889
220.006	0.5443
220.373	0.5679
220.739	0.6143
221.105	0.6565
221.471	0.6785
221.837	0.712
222.203	0.7492
222.569	0.7819
222.935	0.8144
223.3	0.8356
223.666	0.8835
224.031	0.8995
224.397	0.9116
224.762	0.9175
225.127	0.9572
225.493	0.9668
225.858	0.9716
226.223	0.9797
226.588	0.9858
226.952	0.9884
227.317	1.0011
227.682	0.9922
228.046	0.9873
228.411	0.9966
228.775	0.9958
229.14	0.9862
229.504	0.9817
229.868	0.9742
230.232	0.9737
230.596	0.9629
230.96	0.9615
231.324	0.9513
231.688	0.941
232.052	0.9318
232.415	0.9278
232.779	0.918
233.142	0.9078
233.505	0.8951
233.869	0.888
234.232	0.8822
234.595	0.8674
234.958	0.8609
235.321	0.8494
235.684	0.8434
236.047	0.8362
236.409	0.8233
236.772	0.8175
237.134	0.806
237.497	0.7986
237.859	0.7887
238.222	0.7815
238.584	0.7732
238.946	0.7644
239.308	0.757
239.67	0.7512
240.032	0.7447
240.393	0.7355
240.755	0.7265
241.117	0.7232
241.478	0.7148
241.84	0.7099
242.201	0.6997
242.562	0.6968
242.924	0.6893
243.285	0.681
243.646	0.6762
244.007	0.6749
244.368	0.6691
244.728	0.6647
245.089	0.6581
245.45	0.6538
245.81	0.6516
246.171	0.6461
246.531	0.6409
246.891	0.6392
247.252	0.6332
247.612	0.6306
247.972	0.6285
248.332	0.6268
248.692	0.6234
249.051	0.6192
249.411	0.6179
249.771	0.6122
250.13	0.6115
250.49	0.6097
250.849	0.6077
251.208	0.6064
251.568	0.6008
251.927	0.5984
252.286	0.5986
252.645	0.595
253.004	0.5936
253.363	0.5917
253.721	0.5911
254.08	0.5886
254.439	0.5878
254.797	0.586
255.155	0.5824
255.514	0.5836
255.872	0.5818
256.23	0.5785
256.588	0.5771
256.946	0.576
257.304	0.5768
257.662	0.5734
258.02	0.5719
258.377	0.5699
258.735	0.5676
259.093	0.5677
259.45	0.5658
259.807	0.5629
260.165	0.5642
260.522	0.5608
260.879	0.5587
261.236	0.5585
261.593	0.5569
261.95	0.5536
262.306	0.5551
262.663	0.5511
263.02	0.5499
263.376	0.5478
263.733	0.5469
264.089	0.5433
264.445	0.5415
264.802	0.5397
265.158	0.5372
265.514	0.5362
265.87	0.5343
266.226	0.5321
266.581	0.5307
266.937	0.5268
267.293	0.5257
267.648	0.5231
268.004	0.5212
268.359	0.5179
268.714	0.5153
269.07	0.5118
269.425	0.5111
269.78	0.5101
270.135	0.5071
270.49	0.5039
270.844	0.502
271.199	0.4977
271.554	0.4962
271.908	0.4927
272.263	0.4908
272.617	0.4883
272.972	0.4846
273.326	0.4817
273.68	0.4792
274.034	0.4761
274.388	0.4722
274.742	0.4693
275.096	0.4653
275.45	0.464
275.803	0.46
276.157	0.456
276.51	0.452
276.864	0.4504
277.217	0.4471
277.571	0.4419
277.924	0.4379
278.277	0.4357
278.63	0.431
278.983	0.4269
279.336	0.424
279.688	0.4211
280.041	0.4164
280.394	0.4124
280.746	0.4102
281.099	0.4049
281.451	0.4012
281.803	0.3968
282.156	0.3945
282.508	0.391
282.86	0.3877
283.212	0.3816
283.564	0.3788
283.916	0.3749
284.267	0.3714
284.619	0.3682
284.971	0.3631
285.322	0.3608
285.673	0.3559
286.025	0.3536
286.376	0.3493
286.727	0.3447
287.078	0.3412
287.429	0.3374
287.78	0.3337
288.131	0.3292
288.482	0.3258
288.833	0.3228
289.183	0.3188
289.534	0.3151
289.884	0.3111
290.235	0.3069
290.585	0.3031
290.935	0.2993
291.285	0.2959
291.635	0.2932
291.985	0.2888
292.335	0.284
292.685	0.2805
293.035	0.277
293.384	0.2737
293.734	0.2701
294.083	0.2663
294.433	0.2621
294.782	0.2596
295.131	0.256
295.48	0.2524
295.829	0.2491
296.179	0.2448
296.527	0.2424
296.876	0.2388
297.225	0.2369
297.574	0.2329
297.922	0.2301
298.271	0.226
298.619	0.2229
298.968	0.2207
299.316	0.2174
299.664	0.2147
300.012	0.2119
300.36	0.2082
300.708	0.2063
301.056	0.2041
301.404	0.2018
301.752	0.1986
302.099	0.1962
302.447	0.1947
302.794	0.1913
303.142	0.1898
303.489	0.1869
303.836	0.1848
304.183	0.1837
304.531	0.1818
304.878	0.18
305.224	0.1777
305.571	0.1765
305.918	0.1748
306.265	0.1723
306.611	0.1716
306.958	0.1705
307.304	0.1683
307.651	0.1679
307.997	0.1657
308.343	0.165
308.689	0.1644
309.035	0.1632
309.381	0.1628
309.727	0.1609
310.073	0.1609
310.419	0.1599
310.764	0.1592
311.11	0.1588
311.455	0.1583
311.801	0.1569
312.146	0.1567
312.491	0.1565
312.837	0.1564
313.182	0.1563
313.527	0.156
313.872	0.1552
314.216	0.155
314.561	0.1548
314.906	0.1553
315.251	0.1555
315.595	0.1547
315.94	0.1549
316.284	0.1554
316.628	0.1553
316.972	0.1554
317.317	0.1557
317.661	0.156
318.005	0.1563
318.348	0.1567
318.692	0.1572
319.036	0.1575
319.38	0.1578
319.723	0.1588
320.067	0.1586
320.41	0.1596
320.754	0.1608
321.097	0.1604
321.44	0.162
321.783	0.1621
322.126	0.1631
322.469	0.1642
322.812	0.1652
323.155	0.1656
323.498	0.1677
323.84	0.1684
324.183	0.1689
324.525	0.17
324.868	0.1705
325.21	0.172
325.552	0.1731
325.894	0.1736
326.236	0.1746
326.578	0.1763
326.92	0.1773
327.262	0.1777
327.604	0.1799
327.946	0.1809
328.287	0.1818
328.629	0.1827
328.97	0.1839
329.312	0.1859
329.653	0.1868
329.994	0.1881
330.335	0.1894
330.676	0.1902
331.017	0.1913
331.358	0.1927
331.699	0.1941
332.04	0.1952
332.38	0.196
332.721	0.1983
333.061	0.1983
333.402	0.2002
333.742	0.2013
334.083	0.2034
334.423	0.2041
334.763	0.2044
335.103	0.2064
335.443	0.2071
335.783	0.208
336.123	0.2086
336.462	0.2098
336.802	0.2111
337.141	0.2119
337.481	0.2126
337.82	0.213
338.16	0.215
338.499	0.2158
338.838	0.2165
339.177	0.2179
339.516	0.2185
339.855	0.2197
340.194	0.2206
340.533	0.222
340.872	0.2224
341.21	0.2239
341.549	0.2235
341.887	0.2249
342.226	0.2253
342.564	0.2247
342.902	0.2256
343.24	0.2257
343.578	0.226
343.916	0.2265
344.254	0.2269
344.592	0.2263
344.93	0.2273
345.268	0.2271
345.605	0.2275
345.943	0.228
346.28	0.2278
346.618	0.2281
346.955	0.2279
347.292	0.228
347.629	0.2282
347.966	0.2289
348.303	0.2287
348.64	0.2285
348.977	0.228
349.314	0.2289
349.65	0.2287
349.987	0.2291
350.324	0.2277
350.66	0.2273
350.996	0.2275
351.333	0.2269
351.669	0.2255
352.005	0.2256
352.341	0.2252
352.677	0.2242
353.013	0.2231
353.349	0.2224
353.685	0.2211
354.02	0.2202
354.356	0.2188
354.691	0.2182
355.027	0.218
355.362	0.2161
355.697	0.216
356.033	0.2151
356.368	0.214
356.703	0.2134
357.038	0.2122
357.373	0.2114
357.707	0.2103
358.042	0.2099
358.377	0.209
358.711	0.2079
359.046	0.2073
359.38	0.2059
359.715	0.2048
360.049	0.2036
360.383	0.203
360.717	0.2014
361.051	0.1998
361.385	0.1989
361.719	0.1963
362.053	0.1962
362.387	0.1938
362.72	0.1921
363.054	0.1903
363.387	0.1889
363.721	0.1868
364.054	0.1852
364.387	0.1832
364.721	0.1822
365.054	0.1804
365.387	0.179
365.72	0.1779
366.053	0.1755
366.385	0.1744
366.718	0.1729
367.051	0.1718
367.383	0.1697
367.716	0.1687
368.048	0.168
368.381	0.166
368.713	0.1648
369.045	0.1642
369.377	0.1628
369.709	0.1615
370.041	0.1596
370.373	0.1589
370.705	0.1571
371.037	0.1552
371.368	0.1536
371.7	0.1531
372.031	0.1512
372.363	0.1494
372.694	0.1476
373.025	0.1459
373.356	0.1437
373.688	0.1411
374.019	0.1399
374.35	0.1379
374.68	0.1366
375.011	0.1344
375.342	0.1327
375.673	0.1306
376.003	0.1291
376.334	0.1271
376.664	0.125
376.995	0.1246
377.325	0.1229
377.655	0.1216
377.985	0.1199
378.315	0.119
378.645	0.1174
378.975	0.1158
379.305	0.1147
379.635	0.114
379.964	0.1123
380.294	0.1111
380.623	0.1106
380.953	0.1094
381.282	0.1076
381.611	0.1059
381.941	0.1046
382.27	0.1035
382.599	0.1021
382.928	0.1012
383.257	0.0991
383.585	0.0988
383.914	0.0972
384.243	0.0959
384.571	0.0938
384.9	0.0922
385.228	0.0911
385.557	0.0888
385.885	0.0879
386.213	0.0862
386.541	0.0844
386.869	0.0834
387.197	0.0819
387.525	0.08
387.853	0.0787
388.181	0.0778
388.508	0.0771
388.836	0.0761
389.164	0.0743
389.491	0.0738
389.818	0.0723
390.146	0.0712
390.473	0.0702
390.8	0.069
391.127	0.0676
391.454	0.0673
391.781	0.0663
392.108	0.0646
392.435	0.0637
392.761	0.0626
393.088	0.0625
393.415	0.0615
393.741	0.0618
394.067	0.0601
394.394	0.0602
394.72	0.0595
395.046	0.058
395.372	0.0566
395.698	0.0556
396.024	0.0556
396.35	0.0544
396.676	0.0546
397.001	0.0536
397.327	0.0525
397.653	0.0514
397.978	0.0501
398.303	0.0496
398.629	0.0489
398.954	0.049
399.279	0.0485
399.604	0.0478
399.929	0.0468
400.254	0.0464
400.579	0.0463
400.904	0.0448
401.229	0.0446
401.553	0.0432
401.878	0.0433
402.202	0.0427
402.527	0.0428
402.851	0.0424
403.175	0.0418
403.5	0.0417
403.824	0.0415
404.148	0.0408
404.472	0.0411
404.796	0.0397
405.119	0.0396
405.443	0.0395
405.767	0.0385
406.09	0.0383
406.414	0.0391
406.737	0.0387
407.061	0.0387
407.384	0.0387
407.707	0.038
408.03	0.0387
408.353	0.0385
408.676	0.0379
408.999	0.0377
409.322	0.0379
409.645	0.0379
409.968	0.037
410.29	0.0369
410.613	0.0371
410.935	0.0369
411.258	0.0375
411.58	0.0367
411.902	0.0375
412.224	0.0369
412.546	0.0366
412.868	0.0362
413.19	0.0367
413.512	0.0364
413.834	0.0362
414.156	0.0363
414.477	0.0363
414.799	0.0368
415.121	0.0373
415.442	0.0364
415.763	0.0374
416.085	0.0371
416.406	0.0375
416.727	0.037
417.048	0.0367
417.369	0.0367
417.69	0.0366
418.011	0.0366
418.331	0.0368
418.652	0.0367
418.973	0.0374
419.293	0.0369
419.614	0.0371
419.934	0.0372
420.254	0.0374
420.574	0.0369
420.895	0.037
421.215	0.0368
421.535	0.0366
421.855	0.0367
422.174	0.0368
422.494	0.0371
422.814	0.0377
423.134	0.0375
423.453	0.0378
423.773	0.0374
424.092	0.0374
424.411	0.0372
424.731	0.0381
425.05	0.0375
425.369	0.038
425.688	0.0384
426.007	0.038
426.326	0.0381
426.644	0.0382
426.963	0.0388
427.282	0.0386
427.6	0.0384
427.919	0.0386
428.237	0.0392
428.556	0.0388
428.874	0.0383
429.192	0.0383
429.51	0.0383
429.828	0.0386
430.146	0.0387
430.464	0.0387
430.782	0.0383
431.1	0.0392
431.418	0.0387
431.735	0.0386
432.053	0.0393
432.37	0.0391
432.688	0.0389
433.005	0.0392
433.322	0.0389
433.639	0.0392
433.957	0.0392
434.274	0.0392
434.591	0.0391
434.907	0.0397
435.224	0.0395
435.541	0.0396
435.858	0.0403
436.174	0.0395
436.491	0.0393
436.807	0.0394
437.124	0.0388
437.44	0.0391
437.756	0.0386
438.072	0.0387
438.388	0.0399
438.704	0.0396
439.02	0.0392
439.336	0.0391
439.652	0.0394
439.968	0.0389
440.283	0.0389
440.599	0.0394
440.914	0.0388
441.23	0.0387
441.545	0.0393
441.86	0.0391
442.175	0.0395
442.491	0.0388
442.806	0.0389
443.121	0.0391
443.435	0.0387
443.75	0.0388
444.065	0.0386
444.38	0.0392
444.694	0.0393
445.009	0.0387
445.323	0.0388
445.638	0.0393
445.952	0.0393
446.266	0.0385
446.58	0.039
446.894	0.0393
447.208	0.0396
447.522	0.0394
447.836	0.0376
448.15	0.038
448.464	0.0379
448.777	0.0379
449.091	0.0373
449.404	0.0383
449.718	0.0388
450.031	0.0379
450.345	0.0378
450.658	0.0373
450.971	0.0379
451.284	0.0374
451.597	0.0378
451.91	0.0379
452.223	0.0377
452.535	0.0374
452.848	0.0374
453.161	0.0373
453.473	0.0375
453.786	0.0372
454.098	0.0368
454.411	0.0365
454.723	0.0365
455.035	0.0365
455.347	0.0367
455.659	0.0365
455.971	0.037
456.283	0.0369
456.595	0.0365
456.907	0.0366
457.218	0.0357
457.53	0.0357
457.841	0.0351
458.153	0.0351
458.464	0.0349
458.776	0.0347
459.087	0.0349
459.398	0.0348
459.709	0.0339
460.02	0.0341
460.331	0.0344
460.642	0.034
460.953	0.0332
461.263	0.0341
461.574	0.0342
461.885	0.0339
462.195	0.0339
462.506	0.0342
462.816	0.033
463.126	0.0332
463.437	0.0328
463.747	0.0322
464.057	0.032
464.367	0.0328
464.677	0.0317
464.987	0.0321
465.296	0.0314
465.606	0.0313
465.916	0.0313
466.225	0.0305
466.535	0.0309
466.844	0.0311
467.154	0.0303
467.463	0.0303
467.772	0.0311
468.081	0.0298
468.39	0.0298
468.699	0.0304
469.008	0.0298
469.317	0.0297
469.626	0.0299
469.935	0.0297
470.243	0.0297
470.552	0.0291
470.86	0.0296
471.169	0.0286
471.477	0.0287
471.785	0.0284
472.093	0.0288
472.402	0.028
472.71	0.0276
473.018	0.0273
473.326	0.0268
473.633	0.0272
473.941	0.0274
474.249	0.0263
474.556	0.0271
474.864	0.0254
475.171	0.0254
475.479	0.0261
475.786	0.0264
476.094	0.0262
476.401	0.0256
476.708	0.0257
477.015	0.0255
477.322	0.0254
477.629	0.0256
477.936	0.0252
478.242	0.0247
478.549	0.0246
478.856	0.0241
479.162	0.0244
479.469	0.0238
479.775	0.0244
480.081	0.023
480.388	0.0237
480.694	0.0227
481	0.0233
481.306	0.0229
481.612	0.023
481.918	0.0221
482.224	0.0226
482.53	0.0215
482.835	0.0223
483.141	0.0207
483.446	0.0212
483.752	0.0213
484.057	0.0197
484.363	0.0206
484.668	0.0191
484.973	0.0194
485.278	0.0196
485.583	0.0186
485.888	0.0194
486.193	0.0186
486.498	0.019
486.803	0.0193
487.107	0.0191
487.412	0.0184
487.717	0.0183
488.021	0.019
488.325	0.0174
488.63	0.0171
488.934	0.0181
489.238	0.0178
489.542	0.0179
489.846	0.0167
490.15	0.0183
490.454	0.0175
490.758	0.017
491.062	0.0168
491.366	0.0162
491.669	0.017
491.973	0.0171
492.276	0.016
492.58	0.0155
492.883	0.0165
493.186	0.0162
493.489	0.0154
493.792	0.0159
494.096	0.0158
494.399	0.0156
494.701	0.0159
495.004	0.0145
495.307	0.0142
495.61	0.0141
495.912	0.0134
496.215	0.0138
496.517	0.0137
496.82	0.0138
497.122	0.0135
497.424	0.013
497.727	0.0134
498.029	0.0134
498.331	0.0137
498.633	0.0134
498.935	0.0125
499.237	0.0127
499.538	0.0128
499.84	0.0125
500.142	0.013
500.443	0.0122
500.745	0.0124
501.046	0.0126
501.348	0.0114
501.649	0.0118
501.95	0.0113
502.251	0.0109
502.552	0.0102
502.853	0.0104
503.154	0.0104
503.455	0.0097
503.756	0.0099
504.057	0.0108
504.357	0.0104
504.658	0.0104
504.958	0.0101
505.259	0.0111
505.559	0.0111
505.859	0.0097
506.16	0.0101
506.46	0.0094
506.76	0.0101
507.06	0.0095
507.36	0.0092
507.66	0.0103
507.96	0.0093
508.259	0.0078
508.559	0.0081
508.859	0.0088
509.158	0.0089
509.457	0.0084
509.757	0.0097
510.056	0.0087
510.355	0.0079
510.655	0.0068
510.954	0.0084
511.253	0.0081
511.552	0.0082
511.851	0.0076
512.149	0.007
512.448	0.008
512.747	0.0081
513.045	0.0064
513.344	0.0078
513.642	0.0088
513.941	0.0071
514.239	0.0076
514.537	0.0068
514.836	0.0069
515.134	0.007
515.432	0.0074
515.73	0.0072
516.028	0.0057
516.326	0.007
516.623	0.0062
516.921	0.0062
517.219	0.008
517.516	0.0068
517.814	0.0068
518.111	0.0063
518.409	0.008
518.706	0.0067
519.003	0.0066
519.3	0.0055
519.597	0.0055
519.894	0.0061
520.191	0.0069
520.488	0.0073
520.785	0.0052
521.082	0.0056
521.378	0.0061
521.675	0.0041
521.971	0.0043
522.268	0.0059
522.564	0.0055
522.861	0.0056
523.157	0.0041
523.453	0.0049
523.749	0.0056
524.045	0.0063
524.341	0.0061
524.637	0.0047
524.933	0.005
525.229	0.0058
525.524	0.0039
525.82	0.0051
526.115	0.0041
526.411	0.0049
526.706	0.0043
527.002	0.0042
527.297	0.0044
527.592	0.0064
527.887	0.0053
528.182	0.0061
528.477	0.0053
528.772	0.005
529.067	0.0045
529.362	0.005
529.657	0.005
529.951	0.0046
530.246	0.0037
530.54	0.0027
530.835	0.003
531.129	0.0024
531.423	0.0042
531.718	0.0037
532.012	0.0039
532.306	0.0039
532.6	0.0033
532.894	0.0028
533.188	0.0042
533.482	0.004
533.775	0.0043
534.069	0.0034
534.363	0.0027
534.656	0.0027
534.95	0.0015
535.243	0.0029
535.536	0.0023
535.83	0.0036
536.123	0.0023
536.416	0.003
536.709	0.0041
537.002	0.0036
537.295	0.0033
537.588	0.0038
537.881	0.0027
538.173	0.0021
538.466	0.0022
538.759	0.0028
539.051	0.0023
539.344	0.0025
539.636	0.003
539.928	0.0028
540.22	0.0029
540.513	0.0035
540.805	0.0028
541.097	0.0031
541.389	0.0024
541.681	0.0028
541.972	0.0028
542.264	0.0019
542.556	0.0029
542.847	0.0029
543.139	0.0033
543.431	0.0039
543.722	0.0029
544.013	0.0042
544.305	0.005
544.596	0.0045
544.887	0.0041
545.178	0.0034
545.469	0.0033
545.76	0.0032
546.051	0.004
546.342	0.0044
546.632	0.0013
546.923	0.0027
547.214	0.0028
547.504	0.0031
547.795	0.0032
548.085	0.0036
548.375	0.0033
548.666	0.003
548.956	0.0015
549.246	0.0033
549.536	0.0025
549.826	0.0045
550.116	0.0033
550.406	0.0033
550.695	0.0039
550.985	0.0046
551.275	0.0044
551.564	0.0035
551.854	0.0046
552.143	0.004
552.433	0.0036
552.722	0.0039
553.011	0.003
553.3	0.004
553.589	0.0039
553.879	0.0028
554.167	0.0037
554.456	0.0032
554.745	0.0036
555.034	0.0027
555.323	0.002
555.611	0.0022
555.9	0.0036
556.188	0.0035
556.477	0.0032
556.765	0.0025
557.053	0.0037
557.342	0.0016
557.63	0.004
557.918	0.0033
558.206	0.0025
558.494	0.0027
558.782	0.0027
559.069	0.003
559.357	0.0031
559.645	0.0037
559.932	0.0026
560.22	0.0036
560.507	0.0036
560.795	0.0026
561.082	0.0031
561.37	0.003
561.657	0.0033
561.944	0.0033
562.231	0.0026
562.518	0.0015
562.805	0.0037
563.092	0.0034
563.379	0.0034
563.665	0.0032
563.952	0.0034
564.239	0.0033
564.525	0.0044
564.811	0.0041
565.098	0.0045
565.384	0.0042
565.67	0.0043
565.957	0.0042
566.243	0.0039
566.529	0.0029
566.815	0.0042
567.101	0.0032
567.387	0.0024
567.672	0.0027
567.958	0.0028
568.244	0.0029
568.529	0.003
568.815	0.0025
569.1	0.0034
569.386	0.0026
569.671	0.0026
569.956	0.0029
570.242	0.003
570.527	0.0034
570.812	0.0037
571.097	0.0036
571.382	0.0038
571.666	0.0031
571.951	0.0025
572.236	0.0032
572.521	0.0032
572.805	0.0038
573.09	0.0033
573.374	0.0025
573.659	0.0018
573.943	0.0034
574.227	0.0029
574.511	0.0035
574.795	0.0027
575.079	0.0028
575.363	0.0026
575.647	0.0035
575.931	0.0035
576.215	0.0029
576.499	0.0024
576.782	0.0029
577.066	0.0033
577.349	0.0027
577.633	0.0039
577.916	0.0032
578.2	0.0039
578.483	0.0034
578.766	0.0023
579.049	0.0037
579.332	0.0031
579.615	0.003
579.898	0.0039
580.181	0.0032
580.464	0.0024
580.746	0.0019
581.029	0.003
581.312	0.0023
581.594	0.002
581.877	0.0032
582.159	0.0034
582.441	0.0029
582.724	0.0026
583.006	0.0026
583.288	0.0019
583.57	0.0019
583.852	0.0022
584.134	0.0018
584.416	0.0029
584.697	0.0025
584.979	0.0027
585.261	0.0026
585.542	0.0025
585.824	0.0029
586.105	0.0026
586.387	0.0021
586.668	0.0026
586.949	0.0025
587.231	0.0015
587.512	0.0025
587.793	0.0024
588.074	0.0028
588.355	0.0024
588.636	0.0035
588.916	0.0034
589.197	0.0039
589.478	0.0036
589.758	0.0034
590.039	0.0031
590.319	0.0028
590.6	0.0031
590.88	0.0026
591.16	0.0024
591.441	0.0023
591.721	0.0026
592.001	0.0028
592.281	0.0031
592.561	0.003
592.841	0.0024
593.12	0.0027
593.4	0.0024
593.68	0.0027
593.959	0.0026
594.239	0.0038
594.518	0.0023
594.798	0.0031
595.077	0.0033
595.356	0.0029
595.636	0.0025
595.915	0.0027
596.194	0.0028
596.473	0.0022
596.752	0.0027
597.031	0.0026
597.31	0.0018
597.588	0.002
597.867	0.0017
598.146	0.0025
598.424	0.0022
598.703	0.0027
598.981	0.0021
599.259	0.0029
599.538	0.0035
599.816	0.0032
600.094	0.0024
600.372	0.0029
600.65	0.0031
600.928	0.0032
601.206	0.0035
601.484	0.0035
601.762	0.0033
602.04	0.0033
602.317	0.0027
602.595	0.0026
602.872	0.0026
603.15	0.0029
603.427	0.0017
603.704	0.0018
603.982	0.0019
604.259	0.001
604.536	0.0024
604.813	0.0024
605.09	0.0023
605.367	0.002
605.644	0.0019
605.921	0.003
606.197	0.0026
606.474	0.003
606.751	0.0023
607.027	0.0021
607.304	0.0018
607.58	0.0025
607.856	0.0018
608.133	0.0026
608.409	0.0027
608.685	0.002
608.961	0.0028
609.237	0.0028
609.513	0.0026
609.789	0.0028
610.065	0.0021
610.341	0.002
610.616	0.0017
610.892	0.0036
611.167	0.0031
611.443	0.0035
611.718	0.0027
611.994	0.0028
612.269	0.0033
612.544	0.0025
612.819	0.002
613.095	0.003
613.37	0.0026
613.645	0.0023
613.919	0.0019
614.194	0.0021
614.469	0.0021
614.744	0.001
615.019	0.0011
615.293	0.0009
615.568	0.0012
615.842	0.0012
616.116	0.0014
616.391	0.0007
616.665	0.0023
616.939	0.0016
617.213	0.0015
617.488	0.0021
617.762	0.0022
618.035	0.0014
618.309	0.0011
618.583	0.0017
618.857	0.0017
619.131	0.0021
619.404	0.0015
619.678	0.0021
619.951	0.0007
620.225	0.001
620.498	0.0016
620.771	0.0022
621.045	0.0034
621.318	0.0031
621.591	0.0023
621.864	0.0012
622.137	0.0008
622.41	0.0018
622.683	0.001
622.956	0.0019
623.228	0.0017
623.501	0.0023
623.774	0.0028
624.046	0.0017
624.319	0.0015
624.591	0.001
624.863	0.0024
625.136	0.0018
625.408	0.002
625.68	0.0027
625.952	0.0013
626.224	0.0019
626.496	0.0012
626.768	0.0013
627.04	0.0012
627.311	0.0021
627.583	0.0005
627.855	0.0016
628.126	0.0016
628.398	0.0025
628.669	0.0018
628.941	0.0008
629.212	0.0009
629.483	0.001
629.755	0.0014
630.026	0.001
630.297	0.0002
630.568	0.0006
630.839	-0.0001
631.11	0.0008
631.38	-0.0003
631.651	0.0001
631.922	-0.0001
632.192	-0.0005
632.463	0.0005
632.733	0.0005
633.004	0.0002
633.274	-0.0004
633.545	0.0024
633.815	0.0029
634.085	0.0027
634.355	0.0017
634.625	0.0032
634.895	0.0025
635.165	0.0005
635.435	0.0015
635.705	0.002
635.974	0.0016
636.244	0.0014
636.514	0.0022
636.783	0.0011
637.053	0.0021
637.322	0.0018
637.591	0.0018
637.861	0.0011
638.13	0.003
638.399	0.0022
638.668	0.0019
638.937	0.0004
639.206	0.0029
639.475	0.0021
639.744	0.0021
640.013	0.0023
640.281	0.0034
640.55	0.0032
640.819	0.0026
641.087	0.0029
641.356	0.0019
641.624	0.0019
641.892	0.0027
642.161	0.002
642.429	0.0034
642.697	0.0025
642.965	0.0029
643.233	0.0029
643.501	0.0019
643.769	0.0017
644.037	0.001
644.305	0.0011
644.572	-0.0001
644.84	-0.0005
645.108	0.0004
645.375	0
645.643	0.0016
645.91	0.0008
646.177	0.0023
646.445	0.0036
646.712	0.0042
646.979	0.0031
647.246	0.0032
647.513	0.0033
647.78	0.004
648.047	0.0041
648.314	0.0034
648.58	0.0025
648.847	0.0018
649.114	0.0007
649.38	0.0011
649.647	0.0009
649.913	0.0005
650.18	0.0007
650.446	0.0016
650.712	0.0014
650.978	0.0021
651.245	0.0025
651.511	0.0028
651.777	0.0019
652.043	0.0028
652.309	0.0024
652.574	0.0032
652.84	0.0028
653.106	0.0013
653.371	0.0012
653.637	0.0022
653.903	0.0037
654.168	0.0024
654.433	0.0033
654.699	0.0034
654.964	0.0035
655.229	0.0032
655.494	0.0026
655.759	0.0003
656.024	0.001
656.289	-0
656.554	0.0002
656.819	0.001
657.084	0.0022
657.349	0.0025
657.613	0.003
657.878	0.0023
658.142	0.0032
658.407	0.0032
658.671	0.0026
658.936	0.0017
659.2	0.0016
659.464	0.0014
659.728	0.0006
659.992	0.0015
660.256	0.001
660.52	0.0008
660.784	-0.0003
661.048	-0.0001
661.312	-0.0012
661.575	-0.0011
661.839	-0.0013
662.103	-0.0011
662.366	-0.002
662.63	-0.0002
662.893	0
663.156	-0.0002
663.42	-0.0005
663.683	-0.0002
663.946	0.0011
664.209	0.0028
664.472	0.0032
664.735	0.0027
664.998	0.0014
665.261	0.0016
665.524	0.0011
665.786	0.0019
666.049	0.0015
666.312	0.0019
666.574	0.0019
666.837	0.0015
667.099	0.0001
667.361	-0.0001
667.624	-0.0003
667.886	0.0003
668.148	0.0012
668.41	0.0021
668.672	0.0008
668.934	0.0013
669.196	0.0003
669.458	0.0005
669.72	0.0026
669.982	0.0016
670.243	0.0026
670.505	0.0022
670.766	0.0018
671.028	0.0028
671.289	0.0021
671.551	0.0012
671.812	-0.0005
672.073	0.0008
672.334	0.0006
672.596	0.0013
672.857	0.0002
673.118	0.001
673.379	-0.0007
673.639	-0.0009
673.9	-0.0002
674.161	-0.0022
674.422	-0.0025
674.682	-0.0026
674.943	-0.0026
675.203	-0.0008
675.464	-0.0013
675.724	-0.0003
675.985	0.0016
676.245	0.0009
676.505	0.0019
676.765	0.001
677.025	0.0011
677.285	0.0009
677.545	0.0034
677.805	0.003
678.065	0.0028
678.325	0.0028
678.585	0.0023
678.844	0.0024
679.104	0.0018
679.363	0.0024
679.623	0.0028
679.882	0.0031
680.142	0.0037
680.401	0.0038
680.66	0.0047
680.919	0.0039
681.178	0.0042
681.437	0.0042
681.696	0.0034
681.955	0.0042
682.214	0.0048
682.473	0.0038
682.732	0.0027
682.99	0.0021
683.249	0.0029
683.508	0.0034
683.766	0.0035
684.024	0.0039
684.283	0.0038
684.541	0.0033
684.799	0.0037
685.058	0.0024
685.316	0.0019
685.574	0.0029
685.832	0.0035
686.09	0.0031
686.348	0.004
686.606	0.0036
686.863	0.0042
687.121	0.0045
687.379	0.0038
687.636	0.004
687.894	0.0052
688.151	0.0039
688.409	0.0038
688.666	0.0044
688.923	0.0043
689.181	0.0029
689.438	0.002
689.695	0.002
689.952	0.0012
690.209	0.0017
690.466	0.0011
690.723	0.0037
690.979	0.0027
691.236	0.003
691.493	0.0015
691.75	0.0033
692.006	0.0025
692.263	0.0026
692.519	0.0025
692.775	0.0018
693.032	0.0006
693.288	0.0009
693.544	0.0026
693.8	0.0027
694.056	0.0017
694.313	0.0021
694.568	0.002
694.824	0.0027
695.08	0.0028
695.336	0.0034
695.592	0.0021
695.847	0.0026
696.103	0.0029
696.359	0.0029
696.614	0.0024
696.869	0.0017
697.125	0.0002
697.38	0.0005
697.635	-0.0003
697.891	0.0003
698.146	0
698.401	0.0019
698.656	0.0009
698.911	0.002
699.166	0.0016
699.42	0.0014
699.675	0.0013
699.93	0.0009
700.185	0.0015
700.439	0.0023
700.694	0.0022
700.948	0.0025
701.203	0.0026
701.457	0.0017
701.711	0.0019
701.965	0.0005
702.22	-0.0003
702.474	0.0002
702.728	-0.0008
702.982	-0.0013
703.236	-0.0005
703.49	0.0001
703.743	-0.0004
703.997	0.0001
704.251	0.0012
704.504	0.0013
704.758	-0.0002
705.012	0.0009
705.265	0.0001
705.518	0.0007
705.772	0
706.025	-0.0004
706.278	-0.0006
706.531	-0.0002
706.785	-0.0016
707.038	-0.0001
707.291	0.0005
707.543	0.0006
707.796	0.0002
708.049	-0.0004
708.302	-0.0008
708.555	-0
708.807	0.0005
709.06	0.0001
709.312	-0.0012
709.565	-0.0016
709.817	-0.0018
710.069	-0.0018
710.322	-0.0007
710.574	0.0001
710.826	-0.0003
711.078	0.0002
711.33	0.0002
711.582	-0.0002
711.834	0.0017
712.086	0.0013
712.338	0.0029
712.59	0.0025
712.841	0.003
713.093	0.0013
713.344	0.0019
713.596	0.0018
713.847	0.0023
714.099	0.0024
714.35	0.0031
714.601	0.0025
714.853	0.0036
715.104	0.003
715.355	0.0013
715.606	0.0028
715.857	0.0028
716.108	0.0031
716.359	0.0032
716.609	0.0035
716.86	0.0018
717.111	0.001
717.361	0.0006
717.612	0.0008
717.863	0.0004
718.113	0.0007
718.363	0.0004
718.614	0.0006
718.864	0.0012
719.114	0.0012
719.364	0.0002
719.614	-0.0008
719.865	-0.0006
720.114	-0.0003
720.364	0.0006
720.614	0.0015
720.864	0.0029
721.114	0.0021
721.364	0.003
721.613	0.0032
721.863	0.0043
722.112	0.0036
722.362	0.0041
722.611	0.0034
722.86	0.0023
723.11	0.0013
723.359	0.0013
723.608	0.0029
723.857	0.0032
724.106	0.0047
724.355	0.0046
724.604	0.0059
724.853	0.0039
725.102	0.0038
725.351	0.0027
725.599	0.0026
725.848	0.0025
726.097	0.0017
726.345	0.0017
726.594	0.0014
726.842	0.0011
727.09	0.0019
727.339	0.001
727.587	0.0002
727.835	0.0002
728.083	-0.0003
728.331	-0.0005
728.579	-0.0009
728.827	-0.0004
729.075	-0
729.323	0.0015
729.571	0.002
729.818	0.0018
730.066	0.0025
730.314	0.0018
730.561	0.0009
730.809	-0.0001
731.056	-0.0002
731.303	-0.0008
731.551	0.0003
731.798	0.0001
732.045	0.0011
732.292	0.0006
732.539	0.0014
732.786	0.0013
733.033	0.0021
733.28	0.0023
733.527	0.0038
733.774	0.0028
734.021	0.0033
734.267	0.0035
734.514	0.0038
734.76	0.0039
735.007	0.0051
735.253	0.0052
735.5	0.0044
735.746	0.0047
735.992	0.0049
736.238	0.0046
736.485	0.006
736.731	0.0052
736.977	0.0052
737.223	0.0037
737.469	0.0052
737.715	0.0052
737.96	0.0068
738.206	0.0066
738.452	0.0083
738.697	0.0084
738.943	0.0074
739.189	0.0058
739.434	0.0032
739.679	0.0028
739.925	0.0022
740.17	0.0022
740.415	0.0024
740.66	0.0031
740.906	0.0033
741.151	0.0036
741.396	0.0035
741.641	0.0051
741.886	0.0057
742.13	0.0064
742.375	0.0062
742.62	0.0066
742.865	0.0052
743.109	0.005
743.354	0.0053
743.598	0.0047
743.843	0.005
744.087	0.0048
744.331	0.0058
744.576	0.0051
744.82	0.0047
745.064	0.0049
745.308	0.0042
745.552	0.0029
745.796	0.0037
746.04	0.0036
746.284	0.0026
746.528	0.0003
746.771	0.0016
747.015	0.0013
747.259	0.0014
747.502	0.0008
747.746	0.0027
747.989	0.0026
748.233	0.0035
748.476	0.004
748.719	0.0041
748.963	0.0046
749.206	0.005
749.449	0.0052
749.692	0.0038
749.935	0.0062
750.178	0.004
750.421	0.0044
750.664	0.0042
750.906	0.0041
751.149	0.0032
751.392	0.0025
751.635	0.0011
751.877	0.0001
752.12	0.0002
752.362	0.001
752.604	0.0005
752.847	0.0009
753.089	0.0014
753.331	0.0019
753.573	0.0019
753.816	0.0029
754.058	0.0029
754.3	0.004
754.542	0.0041
754.783	0.0037
755.025	0.0034
755.267	0.002
755.509	0.0015
755.75	0.0012
755.992	0.0022
756.234	0.0016
756.475	-0.0003
756.716	-0.0002
756.958	0.0003
757.199	0.0003
757.44	0.0015
757.682	0.0009
757.923	0.0003
758.164	0.0004
758.405	-0.0002
758.646	0.0001
758.887	0.0001
759.128	0.0006
759.369	-0.0002
759.609	-0.0006
759.85	-0.0008
760.091	0.0007
760.331	-0.0004
760.572	-0.0004
760.812	-0.0007
761.053	-0.001
761.293	-0.0001
761.533	0.0006
761.774	0.0011
762.014	0.0013
762.254	0.0006
762.494	0.001
762.734	0.0002
762.974	0.0006
763.214	-0.0001
763.454	-0.0005
763.694	-0.0009
763.933	-0.0014
764.173	-0.0001
764.413	-0.0004
764.652	-0.0001
764.892	0.0008
765.131	0.0006
765.371	0.0008
765.61	0.0017
765.849	0.0005
766.089	0.0014
766.328	0.0032
766.567	0.0029
766.806	0.003
767.045	0.0033
767.284	0.0036
767.523	0.0038
767.762	0.0045
768.001	0.003
768.239	0.0028
768.478	0.0021
768.717	0.002
768.955	0.0027
769.194	0.0019
769.432	0.002
769.671	0.0025
769.909	0.0025
770.148	0.0029
770.386	0.0036
770.624	0.0025
770.862	0.0028
771.1	0.0028
771.338	0.0021
771.576	0.0031
771.814	0.0024
772.052	0.0021
772.29	0.0031
772.528	0.0037
772.765	0.003
773.003	0.003
773.24	0.0031
773.478	0.0026
773.716	0.004
773.953	0.0034
774.19	0.0037
774.428	0.0037
774.665	0.0031
774.902	0.0033
775.139	0.0026
775.376	0.0033
775.613	0.0024
775.85	0.0036
776.087	0.0029
776.324	0.0026
776.561	0.0042
776.798	0.0054
777.034	0.0057
777.271	0.0072
777.508	0.0072
777.744	0.0071
777.981	0.0064
778.217	0.0068
778.454	0.0059
778.69	0.005
778.926	0.0052
779.162	0.0051
779.399	0.0041
779.635	0.0041
779.871	0.0037
780.107	0.0047
780.343	0.0046
780.579	0.0048
780.814	0.0042
781.05	0.0047
781.286	0.0044
781.522	0.0043
781.757	0.006
781.993	0.0064
782.228	0.006
782.464	0.0057
782.699	0.0043
782.934	0.0044
783.17	0.0045
783.405	0.004
783.64	0.0036
783.875	0.003
784.11	0.0036
784.345	0.0045
784.58	0.0042
784.815	0.004
785.05	0.0046
785.285	0.0029
785.52	0.0017
785.754	0.0028
785.989	0.0017
786.223	0.0022
786.458	0.0018
786.692	0.0022
786.927	0.0015
787.161	0.0019
787.396	0.0015
787.63	0.0014
787.864	0.0006
788.098	0.0008
788.332	0.0011
788.566	0.0011
788.8	0.0004
789.034	0.0005
789.268	0.001
789.502	0.0019
789.736	0.0023
789.969	0.0027
790.203	0.0025
790.437	0.0017
790.67	0.0018
790.904	0.0022
791.137	0.0008
791.37	0.0011
791.604	-0.0003
791.837	0.0007
792.07	0.0002
792.303	0.0009
792.537	-0.0004
792.77	0.0002
793.003	0.0002
793.236	-0.0012
793.469	-0.0014
793.701	-0.0002
793.934	0.0003
794.167	-0.0006
794.4	0.0004
794.632	-0
794.865	0
795.097	0.0003
795.33	0.0014
795.562	0.0006
795.795	0.0011
796.027	0.0007
796.259	0.0006
796.491	0.0008
796.724	-0.0001
796.956	0.0017
797.188	0.0015
797.42	0.0011
797.652	0.0013
797.883	0.0002
798.115	0.0003
798.347	-0.0003
798.579	-0.001
798.81	-0.0022
799.042	-0.0014
799.274	-0.002
799.505	-0.0015
799.737	-0.0025
799.968	-0.0013
800.199	-0.0005
800.431	-0.0015
800.662	-0.0001
800.893	0.0001
801.124	0.0003
801.355	0.0007
801.586	0.0008
801.817	0.0005
802.048	0.0005
802.279	0.0001
802.51	0.0007
802.741	-0.001
802.971	-0.0009
803.202	-0.0014
803.433	-0.0021
803.663	-0.0016
803.894	-0.0007
804.124	-0.0002
804.354	-0.0007
804.585	-0.0008
804.815	-0.0003
805.045	-0.0002
805.275	-0.0015
805.506	-0.0203
805.736	0.0712
805.966	-0.0409
806.196	0.0509
