Data from 03 0.2 mM BQDS 0.4 mM K2Cr2O7 1 M H2SO4 5 min_Absorbance_07-22-42-534.txt Node
Date: Wed Dec 08 07:22:42 EST 2021
User: kwabilab-user
Spectrometer: HDX00518
Trigger mode: 0
Integration Time (sec): 5.000000E-2
Scans to average: 50
Nonlinearity correction enabled: false
Boxcar width: 0
Storing dark spectrum: false
XAxis mode: Wavelengths
Number of Pixels in Spectrum: 2068
>>>>>Begin Spectral Data<<<<<
195.27	0.0714
195.642	0.1743
196.014	0.1065
196.386	0.0696
196.758	0.0352
197.129	0.0365
197.501	0.0532
197.872	0.0936
198.244	0.1172
198.615	0.1223
198.986	0.1151
199.357	0.1064
199.728	0.1277
200.099	0.1026
200.47	0.1173
200.841	0.1118
201.212	0.104
201.582	0.1026
201.953	0.1153
202.323	0.1184
202.694	0.1101
203.064	0.1185
203.434	0.1112
203.804	0.1076
204.174	0.1058
204.544	0.1219
204.914	0.1043
205.284	0.1281
205.653	0.1299
206.023	0.1056
206.393	0.1266
206.762	0.114
207.131	0.1202
207.501	0.1166
207.87	0.1416
208.239	0.1337
208.608	0.1178
208.977	0.136
209.346	0.1393
209.715	0.1337
210.083	0.1505
210.452	0.1457
210.82	0.1436
211.189	0.1491
211.557	0.1336
211.925	0.1589
212.294	0.1582
212.662	0.1604
213.03	0.1637
213.398	0.1656
213.766	0.1815
214.133	0.2013
214.501	0.21
214.869	0.2089
215.236	0.2441
215.604	0.2314
215.971	0.2383
216.338	0.251
216.705	0.2798
217.072	0.3196
217.439	0.3221
217.806	0.3526
218.173	0.383
218.54	0.416
218.907	0.4516
219.273	0.477
219.64	0.515
220.006	0.5611
220.373	0.5748
220.739	0.6128
221.105	0.6632
221.471	0.6928
221.837	0.7365
222.203	0.7634
222.569	0.799
222.935	0.8275
223.3	0.8429
223.666	0.8883
224.031	0.9029
224.397	0.9157
224.762	0.9342
225.127	0.9538
225.493	0.9697
225.858	0.9705
226.223	0.9915
226.588	0.9907
226.952	1.0013
227.317	1.0021
227.682	1.0024
228.046	0.9881
228.411	1.0023
228.775	0.9943
229.14	0.9893
229.504	0.9792
229.868	0.9781
230.232	0.971
230.596	0.9626
230.96	0.9572
231.324	0.9478
231.688	0.9404
232.052	0.9345
232.415	0.9217
232.779	0.9163
233.142	0.9091
233.505	0.8997
233.869	0.8901
234.232	0.8858
234.595	0.8664
234.958	0.8626
235.321	0.8494
235.684	0.8425
236.047	0.8314
236.409	0.822
236.772	0.8165
237.134	0.8067
237.497	0.7952
237.859	0.7876
238.222	0.7812
238.584	0.7704
238.946	0.7646
239.308	0.7543
239.67	0.7479
240.032	0.7431
240.393	0.7313
240.755	0.7273
241.117	0.7208
241.478	0.7146
241.84	0.7073
242.201	0.7002
242.562	0.6955
242.924	0.6893
243.285	0.6842
243.646	0.6762
244.007	0.6748
244.368	0.669
244.728	0.6654
245.089	0.66
245.45	0.6566
245.81	0.6512
246.171	0.6461
246.531	0.6416
246.891	0.6384
247.252	0.637
247.612	0.6329
247.972	0.6268
248.332	0.6264
248.692	0.6231
249.051	0.6207
249.411	0.6168
249.771	0.6132
250.13	0.6126
250.49	0.6117
250.849	0.609
251.208	0.6077
251.568	0.603
251.927	0.6013
252.286	0.5999
252.645	0.5992
253.004	0.5949
253.363	0.5937
253.721	0.5942
254.08	0.5903
254.439	0.5897
254.797	0.5868
255.155	0.5885
255.514	0.5869
255.872	0.5862
256.23	0.5809
256.588	0.58
256.946	0.5824
257.304	0.5788
257.662	0.579
258.02	0.5768
258.377	0.5747
258.735	0.5733
259.093	0.5713
259.45	0.5705
259.807	0.5696
260.165	0.5689
260.522	0.5676
260.879	0.5658
261.236	0.5659
261.593	0.5617
261.95	0.5585
262.306	0.5594
262.663	0.5557
263.02	0.5558
263.376	0.5525
263.733	0.5516
264.089	0.5493
264.445	0.5482
264.802	0.5456
265.158	0.542
265.514	0.5419
265.87	0.5418
266.226	0.5378
266.581	0.5361
266.937	0.534
267.293	0.5309
267.648	0.5307
268.004	0.5277
268.359	0.5246
268.714	0.5226
269.07	0.5205
269.425	0.5162
269.78	0.5147
270.135	0.5116
270.49	0.5092
270.844	0.5065
271.199	0.5045
271.554	0.5013
271.908	0.4971
272.263	0.4952
272.617	0.4927
272.972	0.4897
273.326	0.4856
273.68	0.4845
274.034	0.4806
274.388	0.477
274.742	0.4744
275.096	0.4699
275.45	0.4676
275.803	0.4637
276.157	0.461
276.51	0.4565
276.864	0.4546
277.217	0.4511
277.571	0.4456
277.924	0.4422
278.277	0.4389
278.63	0.4351
278.983	0.4332
279.336	0.4269
279.688	0.4242
280.041	0.4203
280.394	0.4168
280.746	0.4124
281.099	0.4084
281.451	0.4047
281.803	0.4011
282.156	0.3986
282.508	0.3937
282.86	0.3895
283.212	0.3848
283.564	0.3818
283.916	0.3775
284.267	0.3746
284.619	0.3706
284.971	0.3668
285.322	0.3622
285.673	0.3593
286.025	0.3552
286.376	0.3509
286.727	0.3474
287.078	0.343
287.429	0.34
287.78	0.3357
288.131	0.3317
288.482	0.3266
288.833	0.3231
289.183	0.32
289.534	0.3152
289.884	0.3125
290.235	0.3088
290.585	0.3045
290.935	0.3014
291.285	0.2968
291.635	0.2943
291.985	0.2899
292.335	0.2859
292.685	0.2829
293.035	0.2789
293.384	0.2751
293.734	0.2712
294.083	0.2673
294.433	0.2639
294.782	0.2609
295.131	0.2579
295.48	0.2544
295.829	0.2507
296.179	0.2461
296.527	0.2437
296.876	0.24
297.225	0.2382
297.574	0.2345
297.922	0.2314
298.271	0.2281
298.619	0.2236
298.968	0.2213
299.316	0.2184
299.664	0.2163
300.012	0.2131
300.36	0.2099
300.708	0.207
301.056	0.2053
301.404	0.2025
301.752	0.2006
302.099	0.1976
302.447	0.1948
302.794	0.1926
303.142	0.1909
303.489	0.1879
303.836	0.1858
304.183	0.185
304.531	0.1827
304.878	0.1806
305.224	0.1784
305.571	0.1774
305.918	0.1757
306.265	0.1739
306.611	0.1721
306.958	0.1712
307.304	0.1695
307.651	0.1686
307.997	0.1672
308.343	0.1663
308.689	0.1653
309.035	0.1643
309.381	0.1639
309.727	0.1623
310.073	0.1619
310.419	0.1608
310.764	0.1599
311.11	0.1597
311.455	0.1592
311.801	0.1577
312.146	0.1578
312.491	0.1578
312.837	0.1569
313.182	0.1572
313.527	0.1562
313.872	0.1566
314.216	0.1568
314.561	0.156
314.906	0.156
315.251	0.156
315.595	0.1561
315.94	0.1557
316.284	0.1566
316.628	0.1566
316.972	0.1562
317.317	0.1571
317.661	0.1578
318.005	0.1575
318.348	0.158
318.692	0.158
319.036	0.1583
319.38	0.1589
319.723	0.1596
320.067	0.1602
320.41	0.1609
320.754	0.162
321.097	0.1626
321.44	0.1631
321.783	0.1635
322.126	0.1645
322.469	0.1658
322.812	0.1668
323.155	0.1673
323.498	0.169
323.84	0.1695
324.183	0.1703
324.525	0.1708
324.868	0.172
325.21	0.1739
325.552	0.1748
325.894	0.1758
326.236	0.1768
326.578	0.1777
326.92	0.1789
327.262	0.1799
327.604	0.1811
327.946	0.1828
328.287	0.1839
328.629	0.1846
328.97	0.1855
329.312	0.1874
329.653	0.1883
329.994	0.1897
330.335	0.1911
330.676	0.1919
331.017	0.1929
331.358	0.1945
331.699	0.1959
332.04	0.1976
332.38	0.1992
332.721	0.2006
333.061	0.201
333.402	0.2025
333.742	0.2041
334.083	0.2058
334.423	0.2057
334.763	0.2069
335.103	0.2084
335.443	0.2094
335.783	0.2104
336.123	0.2109
336.462	0.2124
336.802	0.2135
337.141	0.2142
337.481	0.2156
337.82	0.2159
338.16	0.2171
338.499	0.2181
338.838	0.2193
339.177	0.2209
339.516	0.2218
339.855	0.2223
340.194	0.2233
340.533	0.2242
340.872	0.2248
341.21	0.2267
341.549	0.2265
341.887	0.2274
342.226	0.2274
342.564	0.2279
342.902	0.2281
343.24	0.2287
343.578	0.229
343.916	0.2296
344.254	0.2294
344.592	0.2301
344.93	0.2303
345.268	0.2304
345.605	0.2305
345.943	0.2308
346.28	0.231
346.618	0.2306
346.955	0.2317
347.292	0.231
347.629	0.232
347.966	0.2319
348.303	0.2319
348.64	0.2316
348.977	0.2317
349.314	0.2311
349.65	0.2328
349.987	0.2316
350.324	0.2309
350.66	0.2304
350.996	0.2305
351.333	0.2296
351.669	0.2284
352.005	0.2286
352.341	0.2278
352.677	0.2271
353.013	0.2258
353.349	0.2253
353.685	0.2248
354.02	0.2234
354.356	0.2227
354.691	0.2213
355.027	0.2207
355.362	0.2196
355.697	0.219
356.033	0.2178
356.368	0.2162
356.703	0.2158
357.038	0.215
357.373	0.2141
357.707	0.2138
358.042	0.2122
358.377	0.2114
358.711	0.2102
359.046	0.2094
359.38	0.2087
359.715	0.2082
360.049	0.2066
360.383	0.205
360.717	0.2044
361.051	0.2022
361.385	0.2015
361.719	0.1998
362.053	0.1985
362.387	0.1963
362.72	0.195
363.054	0.193
363.387	0.1914
363.721	0.1901
364.054	0.1871
364.387	0.1854
364.721	0.1847
365.054	0.1833
365.387	0.1816
365.72	0.1803
366.053	0.1783
366.385	0.1766
366.718	0.1764
367.051	0.1737
367.383	0.1726
367.716	0.1714
368.048	0.1701
368.381	0.1684
368.713	0.1676
369.045	0.1666
369.377	0.1648
369.709	0.164
370.041	0.1615
370.373	0.1616
370.705	0.1589
371.037	0.1576
371.368	0.1567
371.7	0.1551
372.031	0.1538
372.363	0.152
372.694	0.1504
373.025	0.1481
373.356	0.1464
373.688	0.144
374.019	0.1414
374.35	0.1399
374.68	0.138
375.011	0.1365
375.342	0.1341
375.673	0.1331
376.003	0.131
376.334	0.1293
376.664	0.1276
376.995	0.126
377.325	0.1251
377.655	0.1236
377.985	0.1223
378.315	0.1206
378.645	0.1189
378.975	0.1178
379.305	0.1168
379.635	0.1157
379.964	0.1148
380.294	0.1131
380.623	0.112
380.953	0.111
381.282	0.1096
381.611	0.1081
381.941	0.1064
382.27	0.1054
382.599	0.1037
382.928	0.1025
383.257	0.1018
383.585	0.1004
383.914	0.0985
384.243	0.0976
384.571	0.0957
384.9	0.0937
385.228	0.0926
385.557	0.0914
385.885	0.0898
386.213	0.088
386.541	0.0863
386.869	0.0851
387.197	0.0829
387.525	0.0818
387.853	0.0805
388.181	0.0793
388.508	0.0783
388.836	0.0776
389.164	0.076
389.491	0.0751
389.818	0.0735
390.146	0.0725
390.473	0.0711
390.8	0.0703
391.127	0.0694
391.454	0.0692
391.781	0.0675
392.108	0.0672
392.435	0.0652
392.761	0.0641
393.088	0.0636
393.415	0.063
393.741	0.0628
394.067	0.0616
394.394	0.0613
394.72	0.0603
395.046	0.059
395.372	0.0583
395.698	0.057
396.024	0.0569
396.35	0.0561
396.676	0.0561
397.001	0.055
397.327	0.0532
397.653	0.0526
397.978	0.052
398.303	0.0509
398.629	0.0502
398.954	0.05
399.279	0.0489
399.604	0.0487
399.929	0.048
400.254	0.0473
400.579	0.0474
400.904	0.0462
401.229	0.0456
401.553	0.0448
401.878	0.0442
402.202	0.0445
402.527	0.0435
402.851	0.0431
403.175	0.0423
403.5	0.0425
403.824	0.0427
404.148	0.0418
404.472	0.0418
404.796	0.041
405.119	0.0408
405.443	0.0401
405.767	0.0396
406.09	0.04
406.414	0.04
406.737	0.0392
407.061	0.0394
407.384	0.0392
407.707	0.0387
408.03	0.0397
408.353	0.0392
408.676	0.0391
408.999	0.0384
409.322	0.0386
409.645	0.0388
409.968	0.0378
410.29	0.0379
410.613	0.0373
410.935	0.0378
411.258	0.0383
411.58	0.038
411.902	0.0378
412.224	0.0377
412.546	0.0373
412.868	0.0377
413.19	0.0376
413.512	0.0377
413.834	0.0376
414.156	0.0375
414.477	0.0374
414.799	0.0375
415.121	0.0382
415.442	0.0371
415.763	0.038
416.085	0.0374
416.406	0.0373
416.727	0.0382
417.048	0.0378
417.369	0.0377
417.69	0.037
418.011	0.0377
418.331	0.0377
418.652	0.0373
418.973	0.0387
419.293	0.038
419.614	0.0378
419.934	0.0375
420.254	0.0381
420.574	0.038
420.895	0.0379
421.215	0.0374
421.535	0.0376
421.855	0.0378
422.174	0.0375
422.494	0.0382
422.814	0.0383
423.134	0.0388
423.453	0.0383
423.773	0.0378
424.092	0.0382
424.411	0.0382
424.731	0.0391
425.05	0.0385
425.369	0.0385
425.688	0.0392
426.007	0.039
426.326	0.0394
426.644	0.0397
426.963	0.0395
427.282	0.0398
427.6	0.0392
427.919	0.0396
428.237	0.0397
428.556	0.04
428.874	0.0396
429.192	0.0388
429.51	0.0392
429.828	0.0396
430.146	0.0399
430.464	0.0395
430.782	0.0399
431.1	0.0396
431.418	0.0393
431.735	0.0394
432.053	0.0396
432.37	0.0393
432.688	0.0396
433.005	0.0399
433.322	0.0396
433.639	0.0393
433.957	0.0397
434.274	0.0402
434.591	0.04
434.907	0.0402
435.224	0.0401
435.541	0.0401
435.858	0.0408
436.174	0.0408
436.491	0.0403
436.807	0.0404
437.124	0.0398
437.44	0.0398
437.756	0.04
438.072	0.0395
438.388	0.0408
438.704	0.0402
439.02	0.0401
439.336	0.0398
439.652	0.0402
439.968	0.0405
440.283	0.0402
440.599	0.0404
440.914	0.0402
441.23	0.0396
441.545	0.04
441.86	0.04
442.175	0.0408
442.491	0.0397
442.806	0.0397
443.121	0.0398
443.435	0.0397
443.75	0.0399
444.065	0.0394
444.38	0.0402
444.694	0.0399
445.009	0.0403
445.323	0.0398
445.638	0.0394
445.952	0.0395
446.266	0.0396
446.58	0.0401
446.894	0.0401
447.208	0.0398
447.522	0.0401
447.836	0.0382
448.15	0.0389
448.464	0.0389
448.777	0.0388
449.091	0.0381
449.404	0.0391
449.718	0.0392
450.031	0.0391
450.345	0.0378
450.658	0.0382
450.971	0.0387
451.284	0.0375
451.597	0.0385
451.91	0.0389
452.223	0.0378
452.535	0.0387
452.848	0.0384
453.161	0.0379
453.473	0.0383
453.786	0.0374
454.098	0.0379
454.411	0.0377
454.723	0.0369
455.035	0.0377
455.347	0.0381
455.659	0.0375
455.971	0.0365
456.283	0.037
456.595	0.0373
456.907	0.0374
457.218	0.0373
457.53	0.0365
457.841	0.0358
458.153	0.0362
458.464	0.036
458.776	0.0352
459.087	0.0353
459.398	0.0352
459.709	0.0359
460.02	0.0357
460.331	0.0346
460.642	0.0347
460.953	0.0342
461.263	0.0347
461.574	0.0346
461.885	0.0345
462.195	0.0355
462.506	0.0342
462.816	0.034
463.126	0.0331
463.437	0.0336
463.747	0.0325
464.057	0.0331
464.367	0.0334
464.677	0.0327
464.987	0.0332
465.296	0.0322
465.606	0.0323
465.916	0.0315
466.225	0.032
466.535	0.032
466.844	0.0314
467.154	0.0309
467.463	0.0305
467.772	0.0312
468.081	0.0305
468.39	0.0308
468.699	0.0302
469.008	0.0308
469.317	0.031
469.626	0.0305
469.935	0.0295
470.243	0.0303
470.552	0.0303
470.86	0.03
471.169	0.0299
471.477	0.0293
471.785	0.0293
472.093	0.0293
472.402	0.0291
472.71	0.0277
473.018	0.0283
473.326	0.0275
473.633	0.0276
473.941	0.0269
474.249	0.0277
474.556	0.0275
474.864	0.0272
475.171	0.0262
475.479	0.0269
475.786	0.0271
476.094	0.0266
476.401	0.0269
476.708	0.0256
477.015	0.0264
477.322	0.0262
477.629	0.0258
477.936	0.0248
478.242	0.0253
478.549	0.0254
478.856	0.0249
479.162	0.0248
479.469	0.0245
479.775	0.0242
480.081	0.0232
480.388	0.0246
480.694	0.0238
481	0.0236
481.306	0.024
481.612	0.0237
481.918	0.0226
482.224	0.0231
482.53	0.0231
482.835	0.0227
483.141	0.0215
483.446	0.0219
483.752	0.0217
484.057	0.0207
484.363	0.0214
484.668	0.0201
484.973	0.0202
485.278	0.0202
485.583	0.0202
485.888	0.0194
486.193	0.02
486.498	0.0194
486.803	0.0201
487.107	0.0196
487.412	0.0192
487.717	0.0193
488.021	0.0188
488.325	0.0184
488.63	0.0178
488.934	0.0182
489.238	0.0185
489.542	0.019
489.846	0.0172
490.15	0.0182
490.454	0.0171
490.758	0.0181
491.062	0.0172
491.366	0.0172
491.669	0.0164
491.973	0.0174
492.276	0.017
492.58	0.0158
492.883	0.017
493.186	0.0168
493.489	0.0163
493.792	0.0164
494.096	0.016
494.399	0.0161
494.701	0.0166
495.004	0.0159
495.307	0.0147
495.61	0.0144
495.912	0.0145
496.215	0.0144
496.517	0.0142
496.82	0.0136
497.122	0.014
497.424	0.0135
497.727	0.0137
498.029	0.0144
498.331	0.0143
498.633	0.0144
498.935	0.0134
499.237	0.0128
499.538	0.0131
499.84	0.0124
500.142	0.0137
500.443	0.0133
500.745	0.0125
501.046	0.0133
501.348	0.0119
501.649	0.0124
501.95	0.0123
502.251	0.0114
502.552	0.0107
502.853	0.0105
503.154	0.0115
503.455	0.0105
503.756	0.0106
504.057	0.0111
504.357	0.0107
504.658	0.011
504.958	0.0108
505.259	0.0112
505.559	0.0108
505.859	0.0103
506.16	0.01
506.46	0.0101
506.76	0.0112
507.06	0.0096
507.36	0.0099
507.66	0.0104
507.96	0.0099
508.259	0.0099
508.559	0.0085
508.859	0.0094
509.158	0.0089
509.457	0.0087
509.757	0.0098
510.056	0.0095
510.355	0.0082
510.655	0.0072
510.954	0.008
511.253	0.0079
511.552	0.008
511.851	0.0075
512.149	0.0074
512.448	0.0071
512.747	0.0084
513.045	0.0068
513.344	0.0086
513.642	0.0083
513.941	0.0082
514.239	0.0074
514.537	0.0079
514.836	0.0074
515.134	0.0062
515.432	0.0074
515.73	0.0085
516.028	0.0067
516.326	0.0077
516.623	0.0066
516.921	0.0068
517.219	0.0072
517.516	0.0077
517.814	0.007
518.111	0.0072
518.409	0.008
518.706	0.0072
519.003	0.0065
519.3	0.0062
519.597	0.0063
519.894	0.0066
520.191	0.0072
520.488	0.0069
520.785	0.0059
521.082	0.0054
521.378	0.0068
521.675	0.005
521.971	0.0053
522.268	0.0055
522.564	0.0058
522.861	0.0056
523.157	0.0047
523.453	0.0053
523.749	0.0063
524.045	0.0061
524.341	0.0058
524.637	0.005
524.933	0.0053
525.229	0.0051
525.524	0.0058
525.82	0.0057
526.115	0.0047
526.411	0.0048
526.706	0.0052
527.002	0.0051
527.297	0.0046
527.592	0.0061
527.887	0.0059
528.182	0.0055
528.477	0.0059
528.772	0.0048
529.067	0.0058
529.362	0.0057
529.657	0.0045
529.951	0.0047
530.246	0.0044
530.54	0.0035
530.835	0.004
531.129	0.0032
531.423	0.0045
531.718	0.0034
532.012	0.0041
532.306	0.004
532.6	0.0041
532.894	0.0044
533.188	0.0052
533.482	0.0036
533.775	0.0045
534.069	0.004
534.363	0.0026
534.656	0.0028
534.95	0.0024
535.243	0.0044
535.536	0.0038
535.83	0.0041
536.123	0.003
536.416	0.0045
536.709	0.0041
537.002	0.0046
537.295	0.0046
537.588	0.0037
537.881	0.0032
538.173	0.003
538.466	0.0032
538.759	0.003
539.051	0.003
539.344	0.0031
539.636	0.0031
539.928	0.0028
540.22	0.0027
540.513	0.0035
540.805	0.0036
541.097	0.0036
541.389	0.003
541.681	0.0033
541.972	0.0035
542.264	0.0026
542.556	0.0041
542.847	0.0033
543.139	0.0037
543.431	0.0044
543.722	0.0035
544.013	0.005
544.305	0.0053
544.596	0.0052
544.887	0.004
545.178	0.0036
545.469	0.0035
545.76	0.0029
546.051	0.0038
546.342	0.005
546.632	0.0031
546.923	0.0036
547.214	0.0036
547.504	0.004
547.795	0.0031
548.085	0.0039
548.375	0.003
548.666	0.004
548.956	0.0025
549.246	0.0037
549.536	0.0026
549.826	0.0033
550.116	0.0033
550.406	0.0043
550.695	0.0049
550.985	0.0034
551.275	0.005
551.564	0.003
551.854	0.0038
552.143	0.0045
552.433	0.0035
552.722	0.004
553.011	0.003
553.3	0.0044
553.589	0.0033
553.879	0.0035
554.167	0.0035
554.456	0.0034
554.745	0.0031
555.034	0.0023
555.323	0.0019
555.611	0.0029
555.9	0.0035
556.188	0.0034
556.477	0.0023
556.765	0.0019
557.053	0.0032
557.342	0.0023
557.63	0.003
557.918	0.0025
558.206	0.0033
558.494	0.0042
558.782	0.0036
559.069	0.0031
559.357	0.003
559.645	0.003
559.932	0.0038
560.22	0.004
560.507	0.0041
560.795	0.0031
561.082	0.0028
561.37	0.003
561.657	0.0031
561.944	0.0042
562.231	0.0036
562.518	0.0022
562.805	0.0028
563.092	0.0041
563.379	0.0034
563.665	0.0031
563.952	0.0036
564.239	0.0045
564.525	0.0044
564.811	0.0047
565.098	0.0035
565.384	0.0046
565.67	0.0036
565.957	0.0043
566.243	0.0044
566.529	0.0041
566.815	0.0053
567.101	0.0032
567.387	0.0034
567.672	0.0033
567.958	0.0037
568.244	0.0036
568.529	0.0037
568.815	0.0028
569.1	0.0037
569.386	0.0029
569.671	0.0027
569.956	0.0035
570.242	0.0034
570.527	0.004
570.812	0.0039
571.097	0.0039
571.382	0.0034
571.666	0.0029
571.951	0.0028
572.236	0.0038
572.521	0.0029
572.805	0.0035
573.09	0.0034
573.374	0.0026
573.659	0.0025
573.943	0.0034
574.227	0.0024
574.511	0.0032
574.795	0.0033
575.079	0.0028
575.363	0.0033
575.647	0.0032
575.931	0.0039
576.215	0.0035
576.499	0.0027
576.782	0.004
577.066	0.0025
577.349	0.0029
577.633	0.0046
577.916	0.0038
578.2	0.0041
578.483	0.0038
578.766	0.0029
579.049	0.004
579.332	0.0036
579.615	0.0028
579.898	0.0035
580.181	0.0031
580.464	0.0026
580.746	0.0024
581.029	0.0035
581.312	0.0025
581.594	0.0028
581.877	0.0032
582.159	0.0033
582.441	0.003
582.724	0.0032
583.006	0.003
583.288	0.0021
583.57	0.0019
583.852	0.0024
584.134	0.0022
584.416	0.0039
584.697	0.0024
584.979	0.0031
585.261	0.0028
585.542	0.0025
585.824	0.0034
586.105	0.003
586.387	0.002
586.668	0.003
586.949	0.0036
587.231	0.0027
587.512	0.0032
587.793	0.0029
588.074	0.0032
588.355	0.0032
588.636	0.0037
588.916	0.0039
589.197	0.0034
589.478	0.0036
589.758	0.0029
590.039	0.0034
590.319	0.0033
590.6	0.0032
590.88	0.0034
591.16	0.0028
591.441	0.0039
591.721	0.0027
592.001	0.0038
592.281	0.003
592.561	0.0034
592.841	0.0031
593.12	0.003
593.4	0.0024
593.68	0.003
593.959	0.0034
594.239	0.004
594.518	0.0033
594.798	0.0032
595.077	0.0032
595.356	0.0033
595.636	0.0033
595.915	0.0035
596.194	0.0029
596.473	0.004
596.752	0.0036
597.031	0.003
597.31	0.002
597.588	0.0029
597.867	0.0019
598.146	0.0028
598.424	0.0024
598.703	0.0023
598.981	0.0033
599.259	0.0028
599.538	0.0028
599.816	0.0035
600.094	0.0026
600.372	0.0031
600.65	0.0038
600.928	0.0036
601.206	0.0037
601.484	0.0036
601.762	0.004
602.04	0.0034
602.317	0.0039
602.595	0.0027
602.872	0.0031
603.15	0.0028
603.427	0.0019
603.704	0.0021
603.982	0.0019
604.259	0.0026
604.536	0.0024
604.813	0.002
605.09	0.0025
605.367	0.0026
605.644	0.0025
605.921	0.0027
606.197	0.0029
606.474	0.0022
606.751	0.0029
607.027	0.003
607.304	0.0019
607.58	0.0024
607.856	0.0023
608.133	0.0031
608.409	0.0029
608.685	0.0029
608.961	0.0034
609.237	0.0027
609.513	0.0031
609.789	0.003
610.065	0.0018
610.341	0.003
610.616	0.0031
610.892	0.0033
611.167	0.0037
611.443	0.003
611.718	0.0028
611.994	0.0031
612.269	0.0029
612.544	0.0025
612.819	0.0021
613.095	0.0036
613.37	0.0032
613.645	0.0026
613.919	0.0021
614.194	0.003
614.469	0.0024
614.744	0.0019
615.019	0.0014
615.293	0.001
615.568	0.0012
615.842	0.0013
616.116	0.0017
616.391	0.0016
616.665	0.0025
616.939	0.0021
617.213	0.0019
617.488	0.0019
617.762	0.0021
618.035	0.0017
618.309	0.0012
618.583	0.0015
618.857	0.0018
619.131	0.0023
619.404	0.0014
619.678	0.0017
619.951	0.0005
620.225	0.0016
620.498	0.0017
620.771	0.0018
621.045	0.0032
621.318	0.0026
621.591	0.0032
621.864	0.0019
622.137	0.0011
622.41	0.0016
622.683	0.0014
622.956	0.0028
623.228	0.0029
623.501	0.0032
623.774	0.0038
624.046	0.0026
624.319	0.0017
624.591	0.0008
624.863	0.0025
625.136	0.0023
625.408	0.0015
625.68	0.0017
625.952	0.0024
626.224	0.0026
626.496	0.0018
626.768	0.0015
627.04	0.0024
627.311	0.0017
627.583	0.0023
627.855	0.002
628.126	0.0017
628.398	0.0035
628.669	0.002
628.941	0.0019
629.212	0.0015
629.483	0.0011
629.755	0.0012
630.026	0.0016
630.297	0.0012
630.568	-0
630.839	0.0003
631.11	0.001
631.38	-0.0002
631.651	0.0005
631.922	0.0001
632.192	0.0001
632.463	-0.0005
632.733	0.001
633.004	0.0007
633.274	-0.0006
633.545	0.0023
633.815	0.0027
634.085	0.0034
634.355	0.0016
634.625	0.0033
634.895	0.0017
635.165	0.0001
635.435	0.0016
635.705	0.0019
635.974	0.0009
636.244	0.0022
636.514	0.0022
636.783	0.0021
637.053	0.0022
637.322	0.0019
637.591	0.0023
637.861	0.0014
638.13	0.0024
638.399	0.0022
638.668	0.0017
638.937	0.0011
639.206	0.0028
639.475	0.0018
639.744	0.0018
640.013	0.0022
640.281	0.0033
640.55	0.0034
640.819	0.0028
641.087	0.003
641.356	0.0025
641.624	0.0018
641.892	0.0024
642.161	0.0025
642.429	0.0035
642.697	0.0017
642.965	0.0042
643.233	0.0036
643.501	0.0021
643.769	0.0016
644.037	0.002
644.305	0.0016
644.572	-0.0001
644.84	0.0014
645.108	0.0012
645.375	0.0005
645.643	0.0011
645.91	0.0001
646.177	0.0032
646.445	0.0042
646.712	0.0044
646.979	0.0046
647.246	0.0041
647.513	0.0046
647.78	0.0039
648.047	0.0039
648.314	0.0033
648.58	0.0032
648.847	0.0019
649.114	0.0011
649.38	0.0006
649.647	0.0014
649.913	0.001
650.18	0.0019
650.446	0.0026
650.712	0.0029
650.978	0.0019
651.245	0.0027
651.511	0.0025
651.777	0.0023
652.043	0.0028
652.309	0.0021
652.574	0.004
652.84	0.0026
653.106	0.0012
653.371	0.0008
653.637	0.0018
653.903	0.0026
654.168	0.0029
654.433	0.0037
654.699	0.0033
654.964	0.0039
655.229	0.0036
655.494	0.0036
655.759	0.0017
656.024	0.0006
656.289	-0
656.554	-0.0003
656.819	0.0007
657.084	0.0026
657.349	0.0037
657.613	0.0033
657.878	0.0026
658.142	0.0035
658.407	0.0036
658.671	0.0031
658.936	0.0016
659.2	0.0009
659.464	0.002
659.728	0.0025
659.992	0.002
660.256	0.001
660.52	0.0011
660.784	0.0005
661.048	0.0012
661.312	-0.0005
661.575	-0.0003
661.839	-0.0011
662.103	-0.0004
662.366	-0.0012
662.63	0.0005
662.893	0.0012
663.156	0.0005
663.42	0.0005
663.683	0.0004
663.946	0.0017
664.209	0.0033
664.472	0.0029
664.735	0.0032
664.998	0.0022
665.261	0.0015
665.524	0.002
665.786	0.0013
666.049	0.0014
666.312	0.0016
666.574	0.0021
666.837	0.0014
667.099	-0.0001
667.361	0.0003
667.624	-0.0001
667.886	0.0002
668.148	0.0007
668.41	0.0021
668.672	0.001
668.934	0.0012
669.196	0.0005
669.458	0.0018
669.72	0.0022
669.982	0.0023
670.243	0.0022
670.505	0.0027
670.766	0.0026
671.028	0.0028
671.289	0.0025
671.551	0.0012
671.812	0.0008
672.073	0.0015
672.334	0.0009
672.596	0.0012
672.857	0.0008
673.118	0.0001
673.379	0.0003
673.639	0.0006
673.9	-0.0008
674.161	-0.0016
674.422	-0.0017
674.682	-0.0017
674.943	-0.0017
675.203	-0.0011
675.464	-0.0001
675.724	0.0011
675.985	0.0016
676.245	0.002
676.505	0.0019
676.765	0.0019
677.025	0.0018
677.285	0.0021
677.545	0.0035
677.805	0.0036
678.065	0.004
678.325	0.0032
678.585	0.0024
678.844	0.0023
679.104	0.0028
679.363	0.0023
679.623	0.0036
679.882	0.0035
680.142	0.004
680.401	0.0036
680.66	0.0044
680.919	0.004
681.178	0.005
681.437	0.0045
681.696	0.004
681.955	0.0045
682.214	0.0051
682.473	0.0045
682.732	0.0017
682.99	0.0026
683.249	0.0031
683.508	0.0031
683.766	0.003
684.024	0.0038
684.283	0.0037
684.541	0.004
684.799	0.0039
685.058	0.0024
685.316	0.0026
685.574	0.0036
685.832	0.0036
686.09	0.0037
686.348	0.0043
686.606	0.0041
686.863	0.0047
687.121	0.0041
687.379	0.0037
687.636	0.0036
687.894	0.0044
688.151	0.0047
688.409	0.0047
688.666	0.0041
688.923	0.0055
689.181	0.0039
689.438	0.0024
689.695	0.003
689.952	0.0009
690.209	0.0017
690.466	0.0016
690.723	0.0036
690.979	0.0031
691.236	0.0025
691.493	0.0025
691.75	0.0034
692.006	0.0034
692.263	0.0037
692.519	0.0032
692.775	0.002
693.032	0.0014
693.288	0.0029
693.544	0.003
693.8	0.0028
694.056	0.0022
694.313	0.0027
694.568	0.003
694.824	0.0036
695.08	0.0036
695.336	0.0031
695.592	0.0027
695.847	0.0038
696.103	0.0027
696.359	0.0034
696.614	0.0022
696.869	0.0021
697.125	0.0012
697.38	0.0002
697.635	-0.0004
697.891	0.0004
698.146	0.0008
698.401	0.0025
698.656	0.0011
698.911	0.0022
699.166	0.0017
699.42	0.0019
699.675	0.0015
699.93	0.0004
700.185	0.0015
700.439	0.0029
700.694	0.0026
700.948	0.0034
701.203	0.0025
701.457	0.0016
701.711	0.0019
701.965	0
702.22	-0.0001
702.474	0.0006
702.728	-0
702.982	-0.0001
703.236	-0.0002
703.49	0.0006
703.743	0.0004
703.997	0
704.251	0.0007
704.504	0.0016
704.758	0.001
705.012	0.001
705.265	0.0015
705.518	0.0002
705.772	-0
706.025	0.0004
706.278	0.0005
706.531	-0.0004
706.785	-0.0006
707.038	0.0001
707.291	0.0003
707.543	0.0004
707.796	0
708.049	-0.0002
708.302	-0.0001
708.555	0.0009
708.807	0.0002
709.06	0.0005
709.312	-0.0011
709.565	-0.0009
709.817	-0.0021
710.069	-0.0011
710.322	-0.0006
710.574	0.0002
710.826	-0.0004
711.078	0.0013
711.33	0.0007
711.582	0.0001
711.834	0.0017
712.086	0.0017
712.338	0.0029
712.59	0.0026
712.841	0.0023
713.093	0.0021
713.344	0.0017
713.596	0.0025
713.847	0.0021
714.099	0.0027
714.35	0.003
714.601	0.0036
714.853	0.0042
715.104	0.0042
715.355	0.0023
715.606	0.0027
715.857	0.0025
716.108	0.003
716.359	0.003
716.609	0.0032
716.86	0.0026
717.111	0.001
717.361	0.0004
717.612	0.0008
717.863	0
718.113	0.0002
718.363	0.0006
718.614	0.0005
718.864	0.0012
719.114	0.0015
719.364	0.0011
719.614	0
719.865	-0.0006
720.114	0.0005
720.364	0.001
720.614	0.0012
720.864	0.0031
721.114	0.0025
721.364	0.003
721.613	0.0036
721.863	0.0042
722.112	0.0033
722.362	0.0042
722.611	0.0036
722.86	0.0024
723.11	0.0011
723.359	0.0021
723.608	0.0031
723.857	0.0032
724.106	0.0051
724.355	0.0056
724.604	0.0057
724.853	0.0047
725.102	0.0043
725.351	0.0028
725.599	0.0025
725.848	0.0028
726.097	0.0022
726.345	0.0022
726.594	0.0016
726.842	0.0018
727.09	0.0015
727.339	0.0021
727.587	0.0016
727.835	0.0003
728.083	0.0001
728.331	0.0001
728.579	-0.0007
728.827	-0.0002
729.075	0.0003
729.323	0.0015
729.571	0.0022
729.818	0.0026
730.066	0.0025
730.314	0.0022
730.561	0.0008
730.809	0.0006
731.056	0.0005
731.303	-0.0002
731.551	0.0009
731.798	0.0004
732.045	0.0007
732.292	0.0006
732.539	0.0012
732.786	0.0014
733.033	0.0019
733.28	0.0026
733.527	0.0038
733.774	0.0027
734.021	0.0039
734.267	0.004
734.514	0.0043
734.76	0.0031
735.007	0.0048
735.253	0.005
735.5	0.005
735.746	0.0055
735.992	0.005
736.238	0.0047
736.485	0.0062
736.731	0.0062
736.977	0.0053
737.223	0.0047
737.469	0.0055
737.715	0.0055
737.96	0.0067
738.206	0.0064
738.452	0.009
738.697	0.0089
738.943	0.0072
739.189	0.0059
739.434	0.0034
739.679	0.0033
739.925	0.0028
740.17	0.0025
740.415	0.0026
740.66	0.003
740.906	0.0034
741.151	0.0034
741.396	0.0037
741.641	0.0056
741.886	0.0055
742.13	0.0061
742.375	0.0064
742.62	0.0075
742.865	0.0059
743.109	0.0049
743.354	0.0047
743.598	0.005
743.843	0.0046
744.087	0.0042
744.331	0.005
744.576	0.0053
744.82	0.0052
745.064	0.0043
745.308	0.0032
745.552	0.0037
745.796	0.0034
746.04	0.0032
746.284	0.0024
746.528	0.0003
746.771	0.002
747.015	0.0011
747.259	0.002
747.502	0.0013
747.746	0.0027
747.989	0.0021
748.233	0.0034
748.476	0.0031
748.719	0.0045
748.963	0.0052
749.206	0.0046
749.449	0.0055
749.692	0.0035
749.935	0.0051
750.178	0.004
750.421	0.0041
750.664	0.0047
750.906	0.0041
751.149	0.0035
751.392	0.0027
751.635	0.0013
751.877	0.0005
752.12	-0.0002
752.362	0.0016
752.604	0.0006
752.847	0.0021
753.089	0.0019
753.331	0.0023
753.573	0.0018
753.816	0.0029
754.058	0.0025
754.3	0.0037
754.542	0.0044
754.783	0.0043
755.025	0.0038
755.267	0.0017
755.509	0.0018
755.75	0.0015
755.992	0.0021
756.234	0.0014
756.475	0.0009
756.716	0.0009
756.958	0.0003
757.199	0
757.44	0.0014
757.682	0.0017
757.923	0.0007
758.164	0.0001
758.405	-0.0002
758.646	0.0004
758.887	0
759.128	0.0012
759.369	0.0005
759.609	-0.0003
759.85	-0.0005
760.091	0.0006
760.331	0.0001
760.572	-0.0001
760.812	-0.0003
761.053	-0.0006
761.293	-0
761.533	0.0002
761.774	0.0011
762.014	0.0015
762.254	0.0008
762.494	0.0008
762.734	0.0007
762.974	0.0009
763.214	-0.0005
763.454	-0.0004
763.694	-0.0002
763.933	-0.001
764.173	0.0005
764.413	0.0004
764.652	0.0006
764.892	0.0013
765.131	0.0015
765.371	0.0008
765.61	0.0024
765.849	0.0014
766.089	0.0025
766.328	0.003
766.567	0.0029
766.806	0.0032
767.045	0.0025
767.284	0.0037
767.523	0.0045
767.762	0.0047
768.001	0.0039
768.239	0.0032
768.478	0.0025
768.717	0.003
768.955	0.0034
769.194	0.0024
769.432	0.0028
769.671	0.003
769.909	0.0026
770.148	0.0037
770.386	0.0033
770.624	0.0031
770.862	0.0031
771.1	0.003
771.338	0.0023
771.576	0.0032
771.814	0.0023
772.052	0.0027
772.29	0.003
772.528	0.0032
772.765	0.0032
773.003	0.0035
773.24	0.0044
773.478	0.0032
773.716	0.0039
773.953	0.0042
774.19	0.0049
774.428	0.0043
774.665	0.0044
774.902	0.0051
775.139	0.0029
775.376	0.004
775.613	0.0033
775.85	0.0037
776.087	0.0034
776.324	0.003
776.561	0.0038
776.798	0.0056
777.034	0.0062
777.271	0.0064
777.508	0.0073
777.744	0.0074
777.981	0.0058
778.217	0.0054
778.454	0.0059
778.69	0.0048
778.926	0.0054
779.162	0.0046
779.399	0.0044
779.635	0.004
779.871	0.0036
780.107	0.0047
780.343	0.0047
780.579	0.0052
780.814	0.0049
781.05	0.0049
781.286	0.0047
781.522	0.0039
781.757	0.0056
781.993	0.0061
782.228	0.0061
782.464	0.0059
782.699	0.0049
782.934	0.0046
783.17	0.0043
783.405	0.0034
783.64	0.0041
783.875	0.0033
784.11	0.0041
784.345	0.0041
784.58	0.0038
784.815	0.0039
785.05	0.0041
785.285	0.0026
785.52	0.0015
785.754	0.0029
785.989	0.0021
786.223	0.0017
786.458	0.0011
786.692	0.0017
786.927	0.0013
787.161	0.002
787.396	0.0013
787.63	0.0006
787.864	0.0002
788.098	0.0005
788.332	0.0014
788.566	0.0008
788.8	0.0003
789.034	0.0007
789.268	0.0008
789.502	0.0017
789.736	0.0029
789.969	0.0021
790.203	0.0027
790.437	0.0026
790.67	0.0023
790.904	0.002
791.137	0.0005
791.37	0.0008
791.604	-0.0002
791.837	0.0006
792.07	0.0001
792.303	0.0007
792.537	0
792.77	0.0004
793.003	0.0009
793.236	-0.0003
793.469	-0.0005
793.701	-0.0003
793.934	-0
794.167	0.0002
794.4	0.0004
794.632	0.0003
794.865	-0.0003
795.097	0.0005
795.33	0.0017
795.562	0.0007
795.795	0.0008
796.027	0.0015
796.259	0.0009
796.491	0.0006
796.724	0.0007
796.956	0.001
797.188	0.0019
797.42	0.0009
797.652	0.0017
797.883	0.0009
798.115	0.0003
798.347	-0
798.579	-0.0014
798.81	-0.0018
799.042	-0.0012
799.274	-0.0021
799.505	-0.0021
799.737	-0.0017
799.968	-0.0015
800.199	-0.0009
800.431	-0.0008
800.662	-0
800.893	-0.0003
801.124	0.0004
801.355	0.0007
801.586	0.0008
801.817	0.0008
802.048	0.0008
802.279	0.0007
802.51	0.0012
802.741	-0.0006
802.971	-0
803.202	-0.0011
803.433	-0.0011
803.663	-0.0016
803.894	-0.0005
804.124	-0
804.354	-0.0005
804.585	-0.0002
804.815	-0.0002
805.045	-0.0006
805.275	-0.0008
805.506	-0.0248
805.736	0.138
805.966	-0.0223
806.196	0.0905
