Data from 03 0.2 mM BQDS 0.4 mM K2Cr2O7 1 M H2SO4 5 min_Absorbance_22-02-42-229.txt Node
Date: Tue Dec 07 22:02:42 EST 2021
User: kwabilab-user
Spectrometer: HDX00518
Trigger mode: 0
Integration Time (sec): 5.000000E-2
Scans to average: 50
Nonlinearity correction enabled: false
Boxcar width: 0
Storing dark spectrum: false
XAxis mode: Wavelengths
Number of Pixels in Spectrum: 2068
>>>>>Begin Spectral Data<<<<<
195.27	-0.0451
195.642	-0.0212
196.014	0.0128
196.386	-0.1645
196.758	-0.013
197.129	0.0051
197.501	0.0311
197.872	0.0928
198.244	0.1054
198.615	0.1114
198.986	0.113
199.357	0.0961
199.728	0.1156
200.099	0.0948
200.47	0.0881
200.841	0.0918
201.212	0.0866
201.582	0.1002
201.953	0.1082
202.323	0.098
202.694	0.0867
203.064	0.117
203.434	0.0891
203.804	0.1234
204.174	0.1123
204.544	0.1073
204.914	0.0879
205.284	0.0988
205.653	0.0897
206.023	0.1137
206.393	0.1137
206.762	0.1168
207.131	0.113
207.501	0.1126
207.87	0.1195
208.239	0.1128
208.608	0.1102
208.977	0.132
209.346	0.1323
209.715	0.1208
210.083	0.1426
210.452	0.1237
210.82	0.1421
211.189	0.1286
211.557	0.1291
211.925	0.1522
212.294	0.1593
212.662	0.1507
213.03	0.1586
213.398	0.1632
213.766	0.1801
214.133	0.185
214.501	0.1984
214.869	0.1992
215.236	0.2227
215.604	0.226
215.971	0.2329
216.338	0.2493
216.705	0.2797
217.072	0.2804
217.439	0.3107
217.806	0.3683
218.173	0.362
218.54	0.4073
218.907	0.4368
219.273	0.4738
219.64	0.5202
220.006	0.5362
220.373	0.5847
220.739	0.6166
221.105	0.6499
221.471	0.6854
221.837	0.7392
222.203	0.7708
222.569	0.797
222.935	0.8302
223.3	0.86
223.666	0.8891
224.031	0.9054
224.397	0.9325
224.762	0.9423
225.127	0.9771
225.493	0.9882
225.858	0.9949
226.223	1.0103
226.588	1.0208
226.952	1.0254
227.317	1.0304
227.682	1.0233
228.046	1.0276
228.411	1.0298
228.775	1.0273
229.14	1.0243
229.504	1.0185
229.868	1.0137
230.232	1.0073
230.596	1.0018
230.96	0.9969
231.324	0.9865
231.688	0.9738
232.052	0.9702
232.415	0.9583
232.779	0.9519
233.142	0.9433
233.505	0.9359
233.869	0.9268
234.232	0.9166
234.595	0.9027
234.958	0.8973
235.321	0.8889
235.684	0.879
236.047	0.8683
236.409	0.8618
236.772	0.8528
237.134	0.8445
237.497	0.8357
237.859	0.8271
238.222	0.8215
238.584	0.8117
238.946	0.8039
239.308	0.795
239.67	0.7915
240.032	0.7832
240.393	0.7763
240.755	0.7681
241.117	0.7607
241.478	0.7591
241.84	0.7516
242.201	0.7454
242.562	0.7392
242.924	0.7336
243.285	0.7273
243.646	0.7237
244.007	0.7214
244.368	0.7176
244.728	0.7129
245.089	0.7071
245.45	0.7063
245.81	0.6995
246.171	0.6961
246.531	0.6931
246.891	0.6904
247.252	0.6878
247.612	0.6866
247.972	0.6835
248.332	0.6827
248.692	0.678
249.051	0.675
249.411	0.6748
249.771	0.6721
250.13	0.6718
250.49	0.6695
250.849	0.6666
251.208	0.667
251.568	0.6658
251.927	0.6624
252.286	0.6646
252.645	0.6626
253.004	0.661
253.363	0.6579
253.721	0.656
254.08	0.6581
254.439	0.6581
254.797	0.6552
255.155	0.6535
255.514	0.6533
255.872	0.6518
256.23	0.6485
256.588	0.6505
256.946	0.6502
257.304	0.6512
257.662	0.6492
258.02	0.6485
258.377	0.6478
258.735	0.6464
259.093	0.6454
259.45	0.645
259.807	0.6428
260.165	0.6438
260.522	0.6415
260.879	0.6386
261.236	0.6407
261.593	0.6371
261.95	0.6355
262.306	0.6377
262.663	0.6353
263.02	0.6337
263.376	0.6306
263.733	0.6298
264.089	0.6283
264.445	0.6256
264.802	0.6254
265.158	0.622
265.514	0.6208
265.87	0.6184
266.226	0.6163
266.581	0.6139
266.937	0.6123
267.293	0.6117
267.648	0.6088
268.004	0.6045
268.359	0.6031
268.714	0.601
269.07	0.5949
269.425	0.5945
269.78	0.5932
270.135	0.5916
270.49	0.5874
270.844	0.5846
271.199	0.5829
271.554	0.5777
271.908	0.5744
272.263	0.5712
272.617	0.5678
272.972	0.5651
273.326	0.5623
273.68	0.5574
274.034	0.5546
274.388	0.5508
274.742	0.5474
275.096	0.5432
275.45	0.5398
275.803	0.5357
276.157	0.5315
276.51	0.5276
276.864	0.525
277.217	0.5199
277.571	0.5145
277.924	0.511
278.277	0.5063
278.63	0.5019
278.983	0.497
279.336	0.4947
279.688	0.4891
280.041	0.4843
280.394	0.4783
280.746	0.4762
281.099	0.4706
281.451	0.4659
281.803	0.4613
282.156	0.457
282.508	0.4526
282.86	0.4477
283.212	0.4433
283.564	0.439
283.916	0.4344
284.267	0.4298
284.619	0.4259
284.971	0.4205
285.322	0.4166
285.673	0.4127
286.025	0.4087
286.376	0.4036
286.727	0.399
287.078	0.3938
287.429	0.3914
287.78	0.3849
288.131	0.3816
288.482	0.376
288.833	0.3729
289.183	0.3682
289.534	0.3635
289.884	0.3587
290.235	0.3553
290.585	0.351
290.935	0.3466
291.285	0.3417
291.635	0.3385
291.985	0.3335
292.335	0.3289
292.685	0.3255
293.035	0.3215
293.384	0.3167
293.734	0.3129
294.083	0.3085
294.433	0.3044
294.782	0.3005
295.131	0.2965
295.48	0.2931
295.829	0.2894
296.179	0.2845
296.527	0.2817
296.876	0.2778
297.225	0.2751
297.574	0.2701
297.922	0.2677
298.271	0.2634
298.619	0.2594
298.968	0.2566
299.316	0.2523
299.664	0.2499
300.012	0.2462
300.36	0.242
300.708	0.2397
301.056	0.2372
301.404	0.2346
301.752	0.2317
302.099	0.2289
302.447	0.2267
302.794	0.2239
303.142	0.2212
303.489	0.2182
303.836	0.2161
304.183	0.2133
304.531	0.2117
304.878	0.2093
305.224	0.2069
305.571	0.2056
305.918	0.2033
306.265	0.2015
306.611	0.1993
306.958	0.1992
307.304	0.1966
307.651	0.1954
307.997	0.1938
308.343	0.1926
308.689	0.1911
309.035	0.1903
309.381	0.1896
309.727	0.1873
310.073	0.1868
310.419	0.1866
310.764	0.1853
311.11	0.1844
311.455	0.1839
311.801	0.183
312.146	0.1826
312.491	0.1823
312.837	0.1824
313.182	0.182
313.527	0.181
313.872	0.1806
314.216	0.181
314.561	0.1805
314.906	0.1802
315.251	0.1807
315.595	0.1803
315.94	0.1802
316.284	0.1804
316.628	0.18
316.972	0.1804
317.317	0.1807
317.661	0.1814
318.005	0.1821
318.348	0.1824
318.692	0.1827
319.036	0.1828
319.38	0.1837
319.723	0.1848
320.067	0.1841
320.41	0.1853
320.754	0.1864
321.097	0.1874
321.44	0.1877
321.783	0.1884
322.126	0.1891
322.469	0.1907
322.812	0.1916
323.155	0.1931
323.498	0.1937
323.84	0.1953
324.183	0.1959
324.525	0.1969
324.868	0.1987
325.21	0.1999
325.552	0.2016
325.894	0.2019
326.236	0.2025
326.578	0.2049
326.92	0.2058
327.262	0.207
327.604	0.2084
327.946	0.2099
328.287	0.2115
328.629	0.2124
328.97	0.2134
329.312	0.2155
329.653	0.2165
329.994	0.2184
330.335	0.22
330.676	0.2211
331.017	0.2218
331.358	0.2242
331.699	0.2251
332.04	0.2271
332.38	0.2284
332.721	0.231
333.061	0.2305
333.402	0.2335
333.742	0.2342
334.083	0.2357
334.423	0.2367
334.763	0.2382
335.103	0.2395
335.443	0.2406
335.783	0.2416
336.123	0.2419
336.462	0.2439
336.802	0.2449
337.141	0.2461
337.481	0.2472
337.82	0.2485
338.16	0.2494
338.499	0.2501
338.838	0.252
339.177	0.253
339.516	0.2543
339.855	0.2555
340.194	0.2565
340.533	0.2573
340.872	0.2584
341.21	0.2598
341.549	0.2598
341.887	0.2616
342.226	0.2622
342.564	0.2616
342.902	0.2626
343.24	0.2626
343.578	0.2633
343.916	0.2641
344.254	0.2644
344.592	0.2645
344.93	0.2649
345.268	0.2647
345.605	0.2647
345.943	0.2653
346.28	0.2653
346.618	0.2656
346.955	0.2653
347.292	0.2659
347.629	0.2666
347.966	0.2662
348.303	0.2672
348.64	0.2666
348.977	0.2667
349.314	0.266
349.65	0.2664
349.987	0.2663
350.324	0.2662
350.66	0.2657
350.996	0.2656
351.333	0.2644
351.669	0.264
352.005	0.2634
352.341	0.2621
352.677	0.2617
353.013	0.2601
353.349	0.2598
353.685	0.2582
354.02	0.2572
354.356	0.2567
354.691	0.2551
355.027	0.2545
355.362	0.2531
355.697	0.2529
356.033	0.2507
356.368	0.25
356.703	0.2492
357.038	0.2483
357.373	0.2475
357.707	0.2469
358.042	0.2454
358.377	0.2443
358.711	0.2427
359.046	0.2422
359.38	0.2404
359.715	0.2403
360.049	0.2383
360.383	0.2377
360.717	0.236
361.051	0.2336
361.385	0.2329
361.719	0.2305
362.053	0.2294
362.387	0.2273
362.72	0.2249
363.054	0.2227
363.387	0.2214
363.721	0.2197
364.054	0.2173
364.387	0.2153
364.721	0.2141
365.054	0.2121
365.387	0.2104
365.72	0.2085
366.053	0.2068
366.385	0.2044
366.718	0.2045
367.051	0.2015
367.383	0.2003
367.716	0.1986
368.048	0.1976
368.381	0.1955
368.713	0.1945
369.045	0.1937
369.377	0.1912
369.709	0.19
370.041	0.1886
370.373	0.1873
370.705	0.1864
371.037	0.1831
371.368	0.1816
371.7	0.1807
372.031	0.179
372.363	0.1769
372.694	0.1744
373.025	0.1722
373.356	0.1701
373.688	0.1683
374.019	0.1657
374.35	0.1638
374.68	0.1623
375.011	0.1598
375.342	0.1569
375.673	0.1551
376.003	0.1535
376.334	0.1518
376.664	0.1496
376.995	0.1485
377.325	0.1469
377.655	0.1453
377.985	0.1436
378.315	0.142
378.645	0.1406
378.975	0.1398
379.305	0.1377
379.635	0.1369
379.964	0.1343
380.294	0.1333
380.623	0.1324
380.953	0.1311
381.282	0.1298
381.611	0.128
381.941	0.1261
382.27	0.125
382.599	0.1235
382.928	0.1217
383.257	0.1201
383.585	0.119
383.914	0.1172
384.243	0.1156
384.571	0.1132
384.9	0.1117
385.228	0.1098
385.557	0.1087
385.885	0.1072
386.213	0.1056
386.541	0.1031
386.869	0.1011
387.197	0.0998
387.525	0.0976
387.853	0.0961
388.181	0.0953
388.508	0.0942
388.836	0.093
389.164	0.0911
389.491	0.0899
389.818	0.0886
390.146	0.0874
390.473	0.0856
390.8	0.0851
391.127	0.0832
391.454	0.0826
391.781	0.0813
392.108	0.0803
392.435	0.0789
392.761	0.0774
393.088	0.0775
393.415	0.0763
393.741	0.0759
394.067	0.0746
394.394	0.0738
394.72	0.0735
395.046	0.0716
395.372	0.0707
395.698	0.0693
396.024	0.0694
396.35	0.0678
396.676	0.0677
397.001	0.0668
397.327	0.0649
397.653	0.0639
397.978	0.0632
398.303	0.0612
398.629	0.0613
398.954	0.0605
399.279	0.0603
399.604	0.0591
399.929	0.0589
400.254	0.0576
400.579	0.0567
400.904	0.056
401.229	0.0555
401.553	0.0544
401.878	0.0539
402.202	0.0535
402.527	0.0534
402.851	0.053
403.175	0.0522
403.5	0.0516
403.824	0.0518
404.148	0.0511
404.472	0.0511
404.796	0.0496
405.119	0.0492
405.443	0.0495
405.767	0.0489
406.09	0.0481
406.414	0.0491
406.737	0.0478
407.061	0.0478
407.384	0.0481
407.707	0.0475
408.03	0.0474
408.353	0.048
408.676	0.0476
408.999	0.0463
409.322	0.0465
409.645	0.0467
409.968	0.0463
410.29	0.0463
410.613	0.0459
410.935	0.046
411.258	0.0462
411.58	0.0456
411.902	0.046
412.224	0.0459
412.546	0.0457
412.868	0.0452
413.19	0.0456
413.512	0.0456
413.834	0.0457
414.156	0.0462
414.477	0.0459
414.799	0.0456
415.121	0.0456
415.442	0.0454
415.763	0.046
416.085	0.0451
416.406	0.0459
416.727	0.0449
417.048	0.045
417.369	0.0453
417.69	0.0452
418.011	0.0459
418.331	0.0458
418.652	0.0451
418.973	0.0462
419.293	0.0449
419.614	0.0454
419.934	0.0453
420.254	0.046
420.574	0.045
420.895	0.0453
421.215	0.0455
421.535	0.0448
421.855	0.0455
422.174	0.0454
422.494	0.0453
422.814	0.0461
423.134	0.0457
423.453	0.0457
423.773	0.0458
424.092	0.0455
424.411	0.0451
424.731	0.0461
425.05	0.0458
425.369	0.0462
425.688	0.0461
426.007	0.0464
426.326	0.0472
426.644	0.0468
426.963	0.0465
427.282	0.0468
427.6	0.0467
427.919	0.0468
428.237	0.0466
428.556	0.0465
428.874	0.0463
429.192	0.0464
429.51	0.0461
429.828	0.0466
430.146	0.0476
430.464	0.0472
430.782	0.0467
431.1	0.0472
431.418	0.0467
431.735	0.0465
432.053	0.0471
432.37	0.0472
432.688	0.0469
433.005	0.0471
433.322	0.0473
433.639	0.0465
433.957	0.0471
434.274	0.0473
434.591	0.0468
434.907	0.0477
435.224	0.0471
435.541	0.0479
435.858	0.0484
436.174	0.0477
436.491	0.0473
436.807	0.0474
437.124	0.0465
437.44	0.0464
437.756	0.0471
438.072	0.0466
438.388	0.0476
438.704	0.0467
439.02	0.0471
439.336	0.0471
439.652	0.0466
439.968	0.0469
440.283	0.0471
440.599	0.0472
440.914	0.0463
441.23	0.0462
441.545	0.0466
441.86	0.0461
442.175	0.0467
442.491	0.0463
442.806	0.046
443.121	0.0461
443.435	0.0457
443.75	0.046
444.065	0.0465
444.38	0.0466
444.694	0.0462
445.009	0.0464
445.323	0.0463
445.638	0.0464
445.952	0.0461
446.266	0.0458
446.58	0.0461
446.894	0.046
447.208	0.0468
447.522	0.0462
447.836	0.0449
448.15	0.0451
448.464	0.0455
448.777	0.0453
449.091	0.045
449.404	0.0458
449.718	0.0461
450.031	0.0455
450.345	0.0443
450.658	0.0446
450.971	0.0439
451.284	0.0442
451.597	0.0447
451.91	0.0449
452.223	0.044
452.535	0.0448
452.848	0.0443
453.161	0.0437
453.473	0.0447
453.786	0.0443
454.098	0.0435
454.411	0.0437
454.723	0.0431
455.035	0.0436
455.347	0.0445
455.659	0.0438
455.971	0.0434
456.283	0.0432
456.595	0.0427
456.907	0.0435
457.218	0.043
457.53	0.0428
457.841	0.042
458.153	0.042
458.464	0.042
458.776	0.0407
459.087	0.0412
459.398	0.0417
459.709	0.0415
460.02	0.0403
460.331	0.0404
460.642	0.0405
460.953	0.0404
461.263	0.0409
461.574	0.0404
461.885	0.0399
462.195	0.0403
462.506	0.04
462.816	0.0397
463.126	0.0389
463.437	0.0388
463.747	0.0381
464.057	0.0386
464.367	0.0383
464.677	0.0381
464.987	0.0381
465.296	0.0374
465.606	0.0379
465.916	0.0367
466.225	0.0371
466.535	0.0362
466.844	0.0368
467.154	0.0374
467.463	0.036
467.772	0.0367
468.081	0.0355
468.39	0.036
468.699	0.0353
469.008	0.0353
469.317	0.0356
469.626	0.0349
469.935	0.0345
470.243	0.0352
470.552	0.0349
470.86	0.0351
471.169	0.0339
471.477	0.0339
471.785	0.0343
472.093	0.0341
472.402	0.0335
472.71	0.033
473.018	0.0328
473.326	0.0322
473.633	0.032
473.941	0.0322
474.249	0.0317
474.556	0.0318
474.864	0.0308
475.171	0.0312
475.479	0.0318
475.786	0.0317
476.094	0.0308
476.401	0.0309
476.708	0.0306
477.015	0.0308
477.322	0.0303
477.629	0.0296
477.936	0.0296
478.242	0.0289
478.549	0.0286
478.856	0.0289
479.162	0.0292
479.469	0.0287
479.775	0.0283
480.081	0.028
480.388	0.0277
480.694	0.0274
481	0.0276
481.306	0.0281
481.612	0.027
481.918	0.026
482.224	0.0268
482.53	0.0264
482.835	0.026
483.141	0.0252
483.446	0.0251
483.752	0.0252
484.057	0.025
484.363	0.0245
484.668	0.0242
484.973	0.0247
485.278	0.0236
485.583	0.0235
485.888	0.0235
486.193	0.0232
486.498	0.0229
486.803	0.024
487.107	0.0229
487.412	0.0229
487.717	0.0224
488.021	0.0224
488.325	0.0221
488.63	0.0213
488.934	0.0223
489.238	0.022
489.542	0.0216
489.846	0.0201
490.15	0.0215
490.454	0.0205
490.758	0.0216
491.062	0.0204
491.366	0.0196
491.669	0.0202
491.973	0.0202
492.276	0.0204
492.58	0.0185
492.883	0.0197
493.186	0.0193
493.489	0.0191
493.792	0.0192
494.096	0.0187
494.399	0.019
494.701	0.0181
495.004	0.0177
495.307	0.0172
495.61	0.0171
495.912	0.0177
496.215	0.0169
496.517	0.0172
496.82	0.0162
497.122	0.0174
497.424	0.0162
497.727	0.0165
498.029	0.0171
498.331	0.0168
498.633	0.0165
498.935	0.016
499.237	0.0155
499.538	0.0153
499.84	0.0158
500.142	0.0162
500.443	0.0153
500.745	0.0153
501.046	0.0154
501.348	0.0142
501.649	0.015
501.95	0.0138
502.251	0.0133
502.552	0.0125
502.853	0.0119
503.154	0.0131
503.455	0.0128
503.756	0.013
504.057	0.0138
504.357	0.0126
504.658	0.0122
504.958	0.0123
505.259	0.014
505.559	0.0129
505.859	0.0121
506.16	0.0116
506.46	0.0124
506.76	0.0126
507.06	0.0112
507.36	0.0117
507.66	0.0118
507.96	0.0115
508.259	0.0113
508.559	0.011
508.859	0.0109
509.158	0.0107
509.457	0.0102
509.757	0.0118
510.056	0.0099
510.355	0.0106
510.655	0.0086
510.954	0.01
511.253	0.0096
511.552	0.0103
511.851	0.0096
512.149	0.0092
512.448	0.0092
512.747	0.0098
513.045	0.0078
513.344	0.0095
513.642	0.0096
513.941	0.0095
514.239	0.0082
514.537	0.0086
514.836	0.0092
515.134	0.0076
515.432	0.0082
515.73	0.009
516.028	0.0073
516.326	0.0091
516.623	0.0085
516.921	0.0081
517.219	0.0083
517.516	0.0085
517.814	0.0081
518.111	0.0084
518.409	0.009
518.706	0.008
519.003	0.008
519.3	0.0067
519.597	0.0064
519.894	0.0073
520.191	0.0082
520.488	0.0072
520.785	0.0056
521.082	0.0073
521.378	0.0072
521.675	0.0054
521.971	0.0065
522.268	0.0071
522.564	0.0063
522.861	0.0061
523.157	0.0057
523.453	0.0059
523.749	0.0059
524.045	0.0069
524.341	0.0067
524.637	0.0051
524.933	0.0056
525.229	0.0063
525.524	0.0059
525.82	0.0066
526.115	0.0054
526.411	0.0048
526.706	0.0055
527.002	0.0052
527.297	0.0042
527.592	0.0064
527.887	0.0053
528.182	0.0055
528.477	0.007
528.772	0.0054
529.067	0.0046
529.362	0.0047
529.657	0.0048
529.951	0.0052
530.246	0.0052
530.54	0.0032
530.835	0.0041
531.129	0.0041
531.423	0.0043
531.718	0.0036
532.012	0.0049
532.306	0.0039
532.6	0.004
532.894	0.0032
533.188	0.0057
533.482	0.0038
533.775	0.0044
534.069	0.0042
534.363	0.0029
534.656	0.0033
534.95	0.0021
535.243	0.0038
535.536	0.0038
535.83	0.0044
536.123	0.0028
536.416	0.0042
536.709	0.0039
537.002	0.0047
537.295	0.0038
537.588	0.0037
537.881	0.0037
538.173	0.0034
538.466	0.0041
538.759	0.0039
539.051	0.0027
539.344	0.0033
539.636	0.0032
539.928	0.0032
540.22	0.0028
540.513	0.0041
540.805	0.0032
541.097	0.003
541.389	0.0033
541.681	0.0036
541.972	0.0038
542.264	0.0033
542.556	0.0037
542.847	0.0033
543.139	0.004
543.431	0.0053
543.722	0.0035
544.013	0.0055
544.305	0.0056
544.596	0.0054
544.887	0.0046
545.178	0.0039
545.469	0.0026
545.76	0.0031
546.051	0.005
546.342	0.0044
546.632	0.003
546.923	0.0036
547.214	0.004
547.504	0.0038
547.795	0.0032
548.085	0.0039
548.375	0.0034
548.666	0.0044
548.956	0.0034
549.246	0.0038
549.536	0.0032
549.826	0.0033
550.116	0.0029
550.406	0.0038
550.695	0.0043
550.985	0.0034
551.275	0.004
551.564	0.0033
551.854	0.003
552.143	0.0034
552.433	0.0034
552.722	0.0028
553.011	0.0027
553.3	0.003
553.589	0.004
553.879	0.0022
554.167	0.0023
554.456	0.0024
554.745	0.0026
555.034	0.0024
555.323	0.0017
555.611	0.0024
555.9	0.0034
556.188	0.0027
556.477	0.0025
556.765	0.0029
557.053	0.0017
557.342	0.0016
557.63	0.0017
557.918	0.0023
558.206	0.0021
558.494	0.0034
558.782	0.0024
559.069	0.0027
559.357	0.003
559.645	0.0018
559.932	0.0023
560.22	0.0033
560.507	0.0039
560.795	0.0033
561.082	0.0027
561.37	0.0025
561.657	0.0022
561.944	0.0025
562.231	0.0022
562.518	0.002
562.805	0.0034
563.092	0.0042
563.379	0.0034
563.665	0.0026
563.952	0.0035
564.239	0.0034
564.525	0.0037
564.811	0.0037
565.098	0.0031
565.384	0.0033
565.67	0.0034
565.957	0.0026
566.243	0.004
566.529	0.0032
566.815	0.0052
567.101	0.0023
567.387	0.0026
567.672	0.0024
567.958	0.0025
568.244	0.0031
568.529	0.0024
568.815	0.0027
569.1	0.0025
569.386	0.0021
569.671	0.0025
569.956	0.0029
570.242	0.0027
570.527	0.0023
570.812	0.0027
571.097	0.0028
571.382	0.0022
571.666	0.0021
571.951	0.0025
572.236	0.0029
572.521	0.002
572.805	0.0031
573.09	0.0025
573.374	0.0025
573.659	0.002
573.943	0.0028
574.227	0.0022
574.511	0.0037
574.795	0.003
575.079	0.0029
575.363	0.0031
575.647	0.0033
575.931	0.0024
576.215	0.003
576.499	0.003
576.782	0.003
577.066	0.0027
577.349	0.0022
577.633	0.0036
577.916	0.0038
578.2	0.0042
578.483	0.0038
578.766	0.0032
579.049	0.004
579.332	0.0036
579.615	0.0033
579.898	0.0035
580.181	0.0028
580.464	0.0032
580.746	0.0024
581.029	0.003
581.312	0.0025
581.594	0.0029
581.877	0.0033
582.159	0.004
582.441	0.0028
582.724	0.003
583.006	0.0024
583.288	0.0019
583.57	0.0024
583.852	0.0023
584.134	0.002
584.416	0.0033
584.697	0.0025
584.979	0.0033
585.261	0.0037
585.542	0.0028
585.824	0.0031
586.105	0.003
586.387	0.0019
586.668	0.0025
586.949	0.0026
587.231	0.0028
587.512	0.0033
587.793	0.0031
588.074	0.0031
588.355	0.0032
588.636	0.0037
588.916	0.0033
589.197	0.0039
589.478	0.003
589.758	0.0028
590.039	0.0032
590.319	0.0031
590.6	0.0029
590.88	0.0029
591.16	0.0034
591.441	0.0032
591.721	0.0026
592.001	0.0033
592.281	0.0028
592.561	0.0028
592.841	0.0032
593.12	0.003
593.4	0.0024
593.68	0.0027
593.959	0.0028
594.239	0.0035
594.518	0.0029
594.798	0.0022
595.077	0.0022
595.356	0.0024
595.636	0.0035
595.915	0.0028
596.194	0.0037
596.473	0.0029
596.752	0.0031
597.031	0.0018
597.31	0.001
597.588	0.0022
597.867	0.0017
598.146	0.002
598.424	0.0021
598.703	0.0024
598.981	0.0022
599.259	0.003
599.538	0.0029
599.816	0.0027
600.094	0.0027
600.372	0.0031
600.65	0.0031
600.928	0.0032
601.206	0.0037
601.484	0.0031
601.762	0.0033
602.04	0.0031
602.317	0.0029
602.595	0.0019
602.872	0.002
603.15	0.0018
603.427	0.0018
603.704	0.0021
603.982	0.0027
604.259	0.0017
604.536	0.0018
604.813	0.0021
605.09	0.0016
605.367	0.0019
605.644	0.0024
605.921	0.0019
606.197	0.0022
606.474	0.0025
606.751	0.0031
607.027	0.0032
607.304	0.0025
607.58	0.0029
607.856	0.0022
608.133	0.0029
608.409	0.0033
608.685	0.0023
608.961	0.0028
609.237	0.0025
609.513	0.0016
609.789	0.002
610.065	0.0011
610.341	0.0016
610.616	0.0018
610.892	0.0026
611.167	0.0032
611.443	0.0025
611.718	0.0021
611.994	0.0012
612.269	0.0026
612.544	0.0016
612.819	0.0016
613.095	0.0025
613.37	0.0027
613.645	0.0019
613.919	0.0017
614.194	0.0026
614.469	0.0019
614.744	0.0016
615.019	0.0018
615.293	0.0018
615.568	0.0012
615.842	0.0012
616.116	0.0011
616.391	0.0008
616.665	0.0027
616.939	0.0015
617.213	0.002
617.488	0.002
617.762	0.0025
618.035	0.0017
618.309	0.0018
618.583	0.0019
618.857	0.0013
619.131	0.0025
619.404	0.0021
619.678	0.0022
619.951	0.0006
620.225	0.0007
620.498	0.0011
620.771	0.001
621.045	0.001
621.318	0.0003
621.591	0.0005
621.864	0.0004
622.137	0
622.41	0.001
622.683	0.0003
622.956	0.0008
623.228	0.0021
623.501	0.002
623.774	0.0026
624.046	0.0014
624.319	0.002
624.591	0.001
624.863	0.0015
625.136	0.0011
625.408	0.0017
625.68	0.0009
625.952	0.002
626.224	0.002
626.496	0.0013
626.768	0.0006
627.04	0.0019
627.311	0.0016
627.583	0.0014
627.855	0.0014
628.126	0.0013
628.398	0.0016
628.669	0.0012
628.941	-0.0002
629.212	0.001
629.483	0.001
629.755	0.0018
630.026	0.0016
630.297	0.0009
630.568	0.0007
630.839	0.0003
631.11	-0.0012
631.38	-0.002
631.651	-0.0012
631.922	-0.0006
632.192	-0.0024
632.463	-0.0015
632.733	-0.0014
633.004	-0.0013
633.274	-0.0024
633.545	-0.0007
633.815	0.0003
634.085	0.0004
634.355	-0.0007
634.625	0.0014
634.895	0.0003
635.165	-0.0015
635.435	0.0002
635.705	0.0002
635.974	-0.0013
636.244	0.0005
636.514	0.0014
636.783	0.0011
637.053	0.0018
637.322	0.0001
637.591	0.001
637.861	0.0013
638.13	-0.0002
638.399	-0
638.668	0.0013
638.937	0.0003
639.206	0.0008
639.475	0.0011
639.744	0.0013
640.013	0.0015
640.281	0.0018
640.55	0.0012
640.819	0.0011
641.087	0.0019
641.356	0.0001
641.624	0.0002
641.892	0.0009
642.161	0.0004
642.429	0.0014
642.697	-0.0008
642.965	0.0013
643.233	0.0011
643.501	-0.0003
643.769	0.0002
644.037	0.0005
644.305	0.0006
644.572	-0.0011
644.84	-0.0003
645.108	-0
645.375	-0.0014
645.643	0.0009
645.91	0.0002
646.177	0.0022
646.445	0.0027
646.712	0.0033
646.979	0.003
647.246	0.0026
647.513	0.003
647.78	0.0023
648.047	0.003
648.314	0.0026
648.58	0.0025
648.847	0.0005
649.114	-0.0002
649.38	-0.0009
649.647	-0.0005
649.913	-0.0006
650.18	0.0005
650.446	0.0004
650.712	0.0006
650.978	0.002
651.245	0.0012
651.511	0.0013
651.777	0.0009
652.043	0.0014
652.309	0.0009
652.574	0.0015
652.84	0.0005
653.106	-0.0004
653.371	-0.0013
653.637	-0.0005
653.903	0.0002
654.168	-0.0001
654.433	0.0005
654.699	0.0013
654.964	0.0016
655.229	0.0003
655.494	0.0006
655.759	0.0013
656.024	0.001
656.289	-0
656.554	0.0005
656.819	-0.0006
657.084	-0.0003
657.349	0.0004
657.613	0.001
657.878	0.0003
658.142	0.0008
658.407	0.0002
658.671	-0.0006
658.936	-0.0011
659.2	-0.0009
659.464	-0.001
659.728	-0.0011
659.992	-0.0006
660.256	-0.0018
660.52	-0.0018
660.784	-0.0008
661.048	-0.0012
661.312	-0.0018
661.575	-0.0015
661.839	-0.003
662.103	-0.0023
662.366	-0.0024
662.63	-0.0015
662.893	-0.0013
663.156	-0.0014
663.42	-0.0015
663.683	-0.0006
663.946	0.0005
664.209	0.0013
664.472	0.0006
664.735	0.0004
664.998	0.0002
665.261	-0.0012
665.524	-0.0013
665.786	-0.001
666.049	-0.0007
666.312	-0.0016
666.574	-0.0016
666.837	-0.0026
667.099	-0.0026
667.361	-0.0023
667.624	-0.0026
667.886	-0.0018
668.148	-0.0016
668.41	0.0004
668.672	-0.0011
668.934	-0.0014
669.196	-0.0012
669.458	-0
669.72	-0.0007
669.982	-0.0004
670.243	-0.0009
670.505	-0.0006
670.766	-0.0007
671.028	-0.0007
671.289	0.0003
671.551	-0.0007
671.812	-0.0009
672.073	-0.0002
672.334	-0.0019
672.596	0.0001
672.857	-0.0013
673.118	-0.0012
673.379	-0.0016
673.639	-0.0017
673.9	-0.0007
674.161	-0.0023
674.422	-0.002
674.682	-0.0025
674.943	-0.0025
675.203	-0.0014
675.464	-0.0012
675.724	-0.0009
675.985	-0.0001
676.245	0.0006
676.505	0.002
676.765	0.0014
677.025	0.0007
677.285	-0.0001
677.545	0.0022
677.805	0.0015
678.065	0.0018
678.325	0.0013
678.585	0.0014
678.844	0.0003
679.104	0.0005
679.363	0.0007
679.623	0.0011
679.882	0.0019
680.142	0.0018
680.401	0.0021
680.66	0.0021
680.919	0.002
681.178	0.0033
681.437	0.0035
681.696	0.0022
681.955	0.002
682.214	0.0024
682.473	0.0023
682.732	0.0006
682.99	0.0012
683.249	0.0025
683.508	0.0021
683.766	0.0021
684.024	0.0019
684.283	0.0024
684.541	0.0022
684.799	0.0019
685.058	0.0025
685.316	0.0022
685.574	0.0027
685.832	0.0036
686.09	0.0029
686.348	0.0035
686.606	0.0035
686.863	0.0033
687.121	0.0026
687.379	0.0033
687.636	0.0035
687.894	0.0032
688.151	0.0034
688.409	0.0025
688.666	0.0019
688.923	0.0013
689.181	0.0015
689.438	0.0002
689.695	0.0009
689.952	-0.0001
690.209	-0.0006
690.466	-0.0008
690.723	0.0006
690.979	0
691.236	-0.0001
691.493	0.0007
691.75	0.0016
692.006	0.002
692.263	0.0031
692.519	0.0028
692.775	0.003
693.032	0.0019
693.288	0.0021
693.544	0.0026
693.8	0.0015
694.056	0.0018
694.313	0.0016
694.568	0.0011
694.824	0.0015
695.08	0.0027
695.336	0.0018
695.592	0.0019
695.847	0.0017
696.103	0.0009
696.359	0.0007
696.614	0.0002
696.869	-0
697.125	0
697.38	-0.0004
697.635	-0.0016
697.891	-0.0009
698.146	-0.0018
698.401	-0.0005
698.656	-0.0017
698.911	-0.0017
699.166	-0.0027
699.42	-0.0017
699.675	-0.002
699.93	-0.0025
700.185	-0.0021
700.439	-0.0005
700.694	-0.0014
700.948	-0.0003
701.203	0.0006
701.457	-0.0012
701.711	-0.0011
701.965	-0.0009
702.22	-0.0017
702.474	-0.0004
702.728	-0.0004
702.982	-0.001
703.236	-0.0003
703.49	-0.0004
703.743	-0.0008
703.997	-0.0003
704.251	-0.0003
704.504	0.0003
704.758	0.0001
705.012	-0.001
705.265	-0.0015
705.518	-0.0021
705.772	-0.0028
706.025	-0.0024
706.278	-0.0019
706.531	-0.0012
706.785	-0.0015
707.038	-0.0006
707.291	-0.0018
707.543	-0.0018
707.796	-0.002
708.049	-0.0029
708.302	-0.0035
708.555	-0.002
708.807	-0.0015
709.06	-0.0021
709.312	-0.0037
709.565	-0.0035
709.817	-0.0042
710.069	-0.0032
710.322	-0.0023
710.574	-0.002
710.826	-0.0021
711.078	-0.0015
711.33	-0.0026
711.582	-0.0031
711.834	-0.0017
712.086	-0.0019
712.338	-0.0011
712.59	-0.0007
712.841	-0.0008
713.093	-0.0013
713.344	-0.0012
713.596	-0.001
713.847	-0.0002
714.099	-0.0006
714.35	-0.0007
714.601	0.0002
714.853	0.0013
715.104	0.0003
715.355	-0.0002
715.606	0.0003
715.857	0.0001
716.108	0.001
716.359	0.0007
716.609	0.0009
716.86	0.0001
717.111	-0.0012
717.361	-0.002
717.612	-0.0017
717.863	-0.0015
718.113	-0.0019
718.363	-0.0009
718.614	-0.0009
718.864	-0.001
719.114	-0.001
719.364	-0.001
719.614	-0.0014
719.865	-0.0029
720.114	-0.0021
720.364	-0.0015
720.614	-0.0006
720.864	-0.0006
721.114	-0.0001
721.364	0.0002
721.613	0.0003
721.863	0.0014
722.112	0.0009
722.362	0.0018
722.611	0.0009
722.86	0.0007
723.11	-0.0008
723.359	0.0003
723.608	0.001
723.857	0.0019
724.106	0.0033
724.355	0.0036
724.604	0.0035
724.853	0.0015
725.102	0.0016
725.351	0.0006
725.599	0.0013
725.848	0.0016
726.097	0.0007
726.345	0.0014
726.594	-0
726.842	0.0005
727.09	-0.0001
727.339	-0.0006
727.587	-0.0006
727.835	-0.0024
728.083	-0.002
728.331	-0.0018
728.579	-0.0032
728.827	-0.0024
729.075	-0.0024
729.323	-0.0018
729.571	-0.0018
729.818	-0.0009
730.066	-0.0008
730.314	-0.0014
730.561	-0.0027
730.809	-0.0023
731.056	-0.0018
731.303	-0.0021
731.551	-0.0014
731.798	-0.0009
732.045	-0.0018
732.292	-0.002
732.539	-0.002
732.786	-0.0009
733.033	-0.0001
733.28	-0.0001
733.527	0.0007
733.774	0
734.021	0.0015
734.267	0.0019
734.514	0.0019
734.76	0.0022
735.007	0.0037
735.253	0.0039
735.5	0.0042
735.746	0.0047
735.992	0.0031
736.238	0.0025
736.485	0.0029
736.731	0.0012
736.977	0.0021
737.223	0.0014
737.469	0.0024
737.715	0.0016
737.96	0.0024
738.206	0.002
738.452	0.0035
738.697	0.0034
738.943	0.0025
739.189	0.0012
739.434	0.0002
739.679	-0.0007
739.925	-0.0018
740.17	-0.0023
740.415	-0.0016
740.66	-0.0006
740.906	0
741.151	-0.0009
741.396	-0.0009
741.641	0.002
741.886	0.0023
742.13	0.0023
742.375	0.0029
742.62	0.0039
742.865	0.0033
743.109	0.0027
743.354	0.0027
743.598	0.0022
743.843	0.0022
744.087	0.0024
744.331	0.002
744.576	0.0018
744.82	0.0025
745.064	0.002
745.308	0.001
745.552	0.0018
745.796	0.0023
746.04	0.0016
746.284	0.0014
746.528	-0.0002
746.771	0.0002
747.015	0.0002
747.259	0.0007
747.502	0.0006
747.746	0.0017
747.989	0.0008
748.233	0.0014
748.476	0.0011
748.719	0.0018
748.963	0.0019
749.206	0.0009
749.449	0.002
749.692	0.0006
749.935	0.0017
750.178	0.0006
750.421	0.0012
750.664	0.0013
750.906	0.0021
751.149	0.0005
751.392	0.001
751.635	0
751.877	-0.0007
752.12	-0.0018
752.362	-0.0009
752.604	-0.0012
752.847	-0.0007
753.089	-0.0002
753.331	-0.0004
753.573	0.0002
753.816	0.0009
754.058	0.001
754.3	0.0003
754.542	0.0011
754.783	0.0003
755.025	0.0002
755.267	-0.0012
755.509	-0.001
755.75	-0.0005
755.992	0.0004
756.234	-0.0006
756.475	-0.0008
756.716	-0.0007
756.958	-0.0002
757.199	-0.0001
757.44	0.0012
757.682	0.0014
757.923	0.0005
758.164	0.0001
758.405	-0.0006
758.646	-0.0004
758.887	-0.0009
759.128	-0.002
759.369	-0.0016
759.609	-0.0013
759.85	-0.0008
760.091	-0.0004
760.331	-0.0007
760.572	-0.0003
760.812	-0.0015
761.053	-0.002
761.293	-0.002
761.533	-0.0012
761.774	-0.0021
762.014	-0.0023
762.254	-0.0024
762.494	-0.0032
762.734	-0.0031
762.974	-0.0029
763.214	-0.0031
763.454	-0.0029
763.694	-0.0023
763.933	-0.0025
764.173	-0.0016
764.413	-0.0019
764.652	-0.001
764.892	-0.0001
765.131	-0.0002
765.371	-0.0002
765.61	-0.0003
765.849	-0.0003
766.089	-0
766.328	0.001
766.567	0.0004
766.806	0.001
767.045	0.001
767.284	0
767.523	0.0008
767.762	0.0002
768.001	-0.0009
768.239	0.0003
768.478	-0.0007
768.717	-0.0007
768.955	0.0001
769.194	-0.0007
769.432	-0.001
769.671	-0.0003
769.909	-0.0009
770.148	-0.0004
770.386	-0.0003
770.624	-0.0005
770.862	-0.0003
771.1	-0.0003
771.338	-0.0008
771.576	-0.0004
771.814	-0.0011
772.052	-0.0008
772.29	-0.0006
772.528	-0.0002
772.765	-0.0002
773.003	-0
773.24	0.0004
773.478	0.0006
773.716	0.0018
773.953	0.0015
774.19	0.0022
774.428	0.0018
774.665	0.0015
774.902	0.0018
775.139	0.0008
775.376	0.0009
775.613	-0.0003
775.85	0.0004
776.087	-0.0005
776.324	-0.0001
776.561	0.0005
776.798	0.002
777.034	0.0022
777.271	0.0031
777.508	0.0037
777.744	0.0034
777.981	0.0023
778.217	0.0025
778.454	0.0023
778.69	0.0017
778.926	0.0018
779.162	0.0012
779.399	0.0009
779.635	0.0006
779.871	-0.0002
780.107	0.0008
780.343	0.0002
780.579	0.0005
780.814	0.0006
781.05	0.0008
781.286	0.0016
781.522	0.0009
781.757	0.0019
781.993	0.0013
782.228	0.0013
782.464	0.001
782.699	0.0001
782.934	-0.0002
783.17	0.0002
783.405	-0.0002
783.64	-0.0003
783.875	0.001
784.11	0.0017
784.345	0.0018
784.58	0.0009
784.815	0.0013
785.05	0.0014
785.285	0.0013
785.52	-0.0004
785.754	0.0006
785.989	-0.001
786.223	-0.0014
786.458	-0.0016
786.692	-0.0025
786.927	-0.0035
787.161	-0.0035
787.396	-0.0038
787.63	-0.004
787.864	-0.0037
788.098	-0.0032
788.332	-0.0019
788.566	-0.0023
788.8	-0.002
789.034	-0.0016
789.268	-0.0006
789.502	-0.0003
789.736	0.001
789.969	0.0009
790.203	0.0015
790.437	0.0011
790.67	0.0003
790.904	0.0001
791.137	-0.0021
791.37	-0.0013
791.604	-0.0019
791.837	-0.0019
792.07	-0.0021
792.303	-0.001
792.537	-0.001
792.77	-0.0012
793.003	-0.0012
793.236	-0.0025
793.469	-0.0027
793.701	-0.0025
793.934	-0.0021
794.167	-0.0021
794.4	-0.0011
794.632	-0.0008
794.865	-0.0017
795.097	-0.001
795.33	0.0002
795.562	-0.0009
795.795	-0.0007
796.027	-0.0011
796.259	-0.0009
796.491	-0.0011
796.724	-0.0024
796.956	0.0001
797.188	-0.0009
797.42	-0.0003
797.652	-0.0008
797.883	-0.0013
798.115	-0.0018
798.347	-0.0025
798.579	-0.0036
798.81	-0.0042
799.042	-0.0038
799.274	-0.0053
799.505	-0.0048
799.737	-0.0051
799.968	-0.0046
800.199	-0.0039
800.431	-0.0045
800.662	-0.003
800.893	-0.0032
801.124	-0.0026
801.355	-0.0025
801.586	-0.0025
801.817	-0.0013
802.048	-0.0021
802.279	-0.002
802.51	-0.0014
802.741	-0.0021
802.971	-0.002
803.202	-0.003
803.433	-0.0024
803.663	-0.0025
803.894	-0.0018
804.124	-0.0018
804.354	-0.0021
804.585	-0.002
804.815	-0.0022
805.045	-0.001
805.275	-0.0025
805.506	-0.0607
805.736	0.0511
805.966	-0.0853
806.196	0.0742
