Data from 03 0.2 mM BQDS 0.4 mM K2Cr2O7 1 M H2SO4 5 min_Absorbance_01-42-42-457.txt Node
Date: Wed Dec 08 01:42:42 EST 2021
User: kwabilab-user
Spectrometer: HDX00518
Trigger mode: 0
Integration Time (sec): 5.000000E-2
Scans to average: 50
Nonlinearity correction enabled: false
Boxcar width: 0
Storing dark spectrum: false
XAxis mode: Wavelengths
Number of Pixels in Spectrum: 2068
>>>>>Begin Spectral Data<<<<<
195.27	-0.1056
195.642	-0.0084
196.014	-0.0872
196.386	-0.0686
196.758	-0.035
197.129	-0.0211
197.501	0.0268
197.872	0.0553
198.244	0.082
198.615	0.0899
198.986	0.0868
199.357	0.0773
199.728	0.0964
200.099	0.0852
200.47	0.0789
200.841	0.0766
201.212	0.0821
201.582	0.0796
201.953	0.0939
202.323	0.0953
202.694	0.0673
203.064	0.0888
203.434	0.0861
203.804	0.0964
204.174	0.097
204.544	0.0729
204.914	0.0852
205.284	0.0846
205.653	0.0803
206.023	0.0932
206.393	0.0942
206.762	0.0902
207.131	0.084
207.501	0.0988
207.87	0.1087
208.239	0.0897
208.608	0.104
208.977	0.1051
209.346	0.0988
209.715	0.1082
210.083	0.1198
210.452	0.1152
210.82	0.1199
211.189	0.1164
211.557	0.1189
211.925	0.137
212.294	0.1306
212.662	0.1464
213.03	0.1432
213.398	0.122
213.766	0.1468
214.133	0.151
214.501	0.1741
214.869	0.178
215.236	0.2043
215.604	0.2163
215.971	0.2131
216.338	0.2389
216.705	0.2573
217.072	0.2771
217.439	0.282
217.806	0.332
218.173	0.345
218.54	0.3685
218.907	0.4161
219.273	0.4468
219.64	0.4839
220.006	0.5407
220.373	0.5508
220.739	0.5831
221.105	0.6291
221.471	0.6575
221.837	0.7056
222.203	0.7392
222.569	0.7644
222.935	0.7994
223.3	0.8246
223.666	0.8647
224.031	0.8903
224.397	0.8984
224.762	0.9145
225.127	0.9417
225.493	0.9541
225.858	0.974
226.223	0.9755
226.588	0.9793
226.952	0.9828
227.317	0.9948
227.682	0.9915
228.046	0.9883
228.411	0.9953
228.775	0.9837
229.14	0.9834
229.504	0.9803
229.868	0.9733
230.232	0.9625
230.596	0.9616
230.96	0.9546
231.324	0.9492
231.688	0.9308
232.052	0.9306
232.415	0.9183
232.779	0.9126
233.142	0.9015
233.505	0.8962
233.869	0.8873
234.232	0.876
234.595	0.8675
234.958	0.8618
235.321	0.8501
235.684	0.839
236.047	0.8319
236.409	0.821
236.772	0.8113
237.134	0.805
237.497	0.7972
237.859	0.79
238.222	0.78
238.584	0.7726
238.946	0.7645
239.308	0.7563
239.67	0.7505
240.032	0.7438
240.393	0.7386
240.755	0.7284
241.117	0.7232
241.478	0.7193
241.84	0.7125
242.201	0.7041
242.562	0.6984
242.924	0.6936
243.285	0.6882
243.646	0.6848
244.007	0.682
244.368	0.6774
244.728	0.6675
245.089	0.6679
245.45	0.6631
245.81	0.66
246.171	0.656
246.531	0.6523
246.891	0.6472
247.252	0.645
247.612	0.6423
247.972	0.6393
248.332	0.638
248.692	0.634
249.051	0.6322
249.411	0.6306
249.771	0.6249
250.13	0.6264
250.49	0.6258
250.849	0.6241
251.208	0.622
251.568	0.6197
251.927	0.6186
252.286	0.6184
252.645	0.6174
253.004	0.6142
253.363	0.6131
253.721	0.6128
254.08	0.611
254.439	0.6087
254.797	0.6098
255.155	0.6054
255.514	0.6063
255.872	0.6056
256.23	0.603
256.588	0.6021
256.946	0.605
257.304	0.603
257.662	0.6017
258.02	0.5998
258.377	0.5971
258.735	0.5963
259.093	0.5943
259.45	0.5952
259.807	0.5934
260.165	0.5921
260.522	0.5908
260.879	0.5893
261.236	0.5902
261.593	0.5859
261.95	0.5841
262.306	0.583
262.663	0.5827
263.02	0.5815
263.376	0.5809
263.733	0.5775
264.089	0.5753
264.445	0.5744
264.802	0.5714
265.158	0.5692
265.514	0.5694
265.87	0.5653
266.226	0.5651
266.581	0.5637
266.937	0.559
267.293	0.5599
267.648	0.555
268.004	0.5518
268.359	0.5516
268.714	0.5472
269.07	0.5456
269.425	0.5421
269.78	0.5421
270.135	0.5377
270.49	0.5358
270.844	0.5314
271.199	0.5298
271.554	0.5267
271.908	0.5213
272.263	0.5201
272.617	0.5164
272.972	0.5154
273.326	0.5114
273.68	0.5085
274.034	0.5058
274.388	0.5018
274.742	0.497
275.096	0.4944
275.45	0.4893
275.803	0.4877
276.157	0.4816
276.51	0.4786
276.864	0.4751
277.217	0.4714
277.571	0.4657
277.924	0.4643
278.277	0.4595
278.63	0.4551
278.983	0.4507
279.336	0.4473
279.688	0.4425
280.041	0.4385
280.394	0.4353
280.746	0.431
281.099	0.4258
281.451	0.4211
281.803	0.4177
282.156	0.4143
282.508	0.4112
282.86	0.4074
283.212	0.4011
283.564	0.396
283.916	0.3937
284.267	0.3896
284.619	0.3857
284.971	0.3807
285.322	0.3772
285.673	0.3729
286.025	0.3707
286.376	0.3647
286.727	0.3608
287.078	0.3568
287.429	0.3533
287.78	0.349
288.131	0.3454
288.482	0.3403
288.833	0.3371
289.183	0.3335
289.534	0.3287
289.884	0.3248
290.235	0.3207
290.585	0.3159
290.935	0.3129
291.285	0.3085
291.635	0.3056
291.985	0.3005
292.335	0.297
292.685	0.294
293.035	0.2906
293.384	0.286
293.734	0.2817
294.083	0.2786
294.433	0.274
294.782	0.2715
295.131	0.2678
295.48	0.2641
295.829	0.2606
296.179	0.2564
296.527	0.2532
296.876	0.2507
297.225	0.2474
297.574	0.2436
297.922	0.2403
298.271	0.2366
298.619	0.2333
298.968	0.2307
299.316	0.2279
299.664	0.2246
300.012	0.2215
300.36	0.2181
300.708	0.2153
301.056	0.2128
301.404	0.2106
301.752	0.2083
302.099	0.205
302.447	0.2036
302.794	0.2008
303.142	0.1984
303.489	0.196
303.836	0.1942
304.183	0.1921
304.531	0.1898
304.878	0.1885
305.224	0.1859
305.571	0.185
305.918	0.1827
306.265	0.1813
306.611	0.1797
306.958	0.1781
307.304	0.1768
307.651	0.1759
307.997	0.1746
308.343	0.1733
308.689	0.1722
309.035	0.171
309.381	0.1704
309.727	0.1694
310.073	0.1688
310.419	0.1674
310.764	0.1671
311.11	0.1659
311.455	0.1661
311.801	0.165
312.146	0.1648
312.491	0.1646
312.837	0.1638
313.182	0.1643
313.527	0.1635
313.872	0.1633
314.216	0.1634
314.561	0.1631
314.906	0.1634
315.251	0.1629
315.595	0.1633
315.94	0.1629
316.284	0.1631
316.628	0.1633
316.972	0.1636
317.317	0.1637
317.661	0.1643
318.005	0.1645
318.348	0.1651
318.692	0.1652
319.036	0.1659
319.38	0.1664
319.723	0.1671
320.067	0.1675
320.41	0.1681
320.754	0.1688
321.097	0.17
321.44	0.1706
321.783	0.1713
322.126	0.1719
322.469	0.1734
322.812	0.174
323.155	0.1751
323.498	0.1764
323.84	0.1772
324.183	0.1787
324.525	0.1798
324.868	0.1802
325.21	0.1821
325.552	0.183
325.894	0.184
326.236	0.1855
326.578	0.1871
326.92	0.1875
327.262	0.1885
327.604	0.1903
327.946	0.1913
328.287	0.1929
328.629	0.194
328.97	0.1953
329.312	0.1966
329.653	0.1978
329.994	0.1994
330.335	0.2007
330.676	0.202
331.017	0.2025
331.358	0.205
331.699	0.2059
332.04	0.2077
332.38	0.2084
332.721	0.2108
333.061	0.2116
333.402	0.213
333.742	0.2145
334.083	0.2158
334.423	0.2165
334.763	0.2172
335.103	0.2193
335.443	0.2198
335.783	0.221
336.123	0.222
336.462	0.2237
336.802	0.2246
337.141	0.226
337.481	0.2263
337.82	0.2274
338.16	0.228
338.499	0.2295
338.838	0.2304
339.177	0.2321
339.516	0.2327
339.855	0.2339
340.194	0.2351
340.533	0.2365
340.872	0.2367
341.21	0.2382
341.549	0.2389
341.887	0.2397
342.226	0.2398
342.564	0.2398
342.902	0.2408
343.24	0.2407
343.578	0.2408
343.916	0.2416
344.254	0.2422
344.592	0.2419
344.93	0.2427
345.268	0.243
345.605	0.2428
345.943	0.2433
346.28	0.2437
346.618	0.2431
346.955	0.2432
347.292	0.2436
347.629	0.2448
347.966	0.2441
348.303	0.2449
348.64	0.2447
348.977	0.2441
349.314	0.2444
349.65	0.2442
349.987	0.2449
350.324	0.2438
350.66	0.2431
350.996	0.2436
351.333	0.2418
351.669	0.2415
352.005	0.2414
352.341	0.2405
352.677	0.2398
353.013	0.2379
353.349	0.2384
353.685	0.2368
354.02	0.2361
354.356	0.2343
354.691	0.2339
355.027	0.2332
355.362	0.2309
355.697	0.2308
356.033	0.2303
356.368	0.2287
356.703	0.2284
357.038	0.2275
357.373	0.2267
357.707	0.2257
358.042	0.2245
358.377	0.2242
358.711	0.2224
359.046	0.2214
359.38	0.2202
359.715	0.2192
360.049	0.2183
360.383	0.2175
360.717	0.2162
361.051	0.2138
361.385	0.2126
361.719	0.2109
362.053	0.2104
362.387	0.2078
362.72	0.2063
363.054	0.2043
363.387	0.2028
363.721	0.2013
364.054	0.199
364.387	0.1968
364.721	0.1952
365.054	0.1942
365.387	0.1912
365.72	0.1902
366.053	0.189
366.385	0.1865
366.718	0.1862
367.051	0.1842
367.383	0.1825
367.716	0.1812
368.048	0.1802
368.381	0.1793
368.713	0.1779
369.045	0.177
369.377	0.1743
369.709	0.1738
370.041	0.1723
370.373	0.171
370.705	0.1696
371.037	0.1673
371.368	0.1658
371.7	0.1649
372.031	0.1632
372.363	0.1611
372.694	0.1589
373.025	0.1569
373.356	0.1553
373.688	0.1535
374.019	0.1505
374.35	0.149
374.68	0.1473
375.011	0.1449
375.342	0.143
375.673	0.1412
376.003	0.1394
376.334	0.1381
376.664	0.1356
376.995	0.1344
377.325	0.1335
377.655	0.1319
377.985	0.1304
378.315	0.1289
378.645	0.1275
378.975	0.1257
379.305	0.1241
379.635	0.1238
379.964	0.1219
380.294	0.1209
380.623	0.1192
380.953	0.1186
381.282	0.118
381.611	0.1154
381.941	0.1141
382.27	0.1127
382.599	0.1113
382.928	0.1101
383.257	0.1084
383.585	0.1073
383.914	0.1058
384.243	0.1046
384.571	0.1022
384.9	0.1006
385.228	0.0992
385.557	0.0981
385.885	0.0962
386.213	0.0945
386.541	0.0924
386.869	0.0913
387.197	0.0893
387.525	0.0881
387.853	0.0864
388.181	0.0854
388.508	0.0844
388.836	0.083
389.164	0.0821
389.491	0.0809
389.818	0.079
390.146	0.0786
390.473	0.0763
390.8	0.076
391.127	0.0745
391.454	0.074
391.781	0.073
392.108	0.0718
392.435	0.0696
392.761	0.0689
393.088	0.0687
393.415	0.0681
393.741	0.0679
394.067	0.0667
394.394	0.066
394.72	0.0653
395.046	0.0638
395.372	0.063
395.698	0.0618
396.024	0.0615
396.35	0.0603
396.676	0.0597
397.001	0.0594
397.327	0.058
397.653	0.0569
397.978	0.0557
398.303	0.0551
398.629	0.054
398.954	0.0539
399.279	0.0538
399.604	0.0524
399.929	0.0519
400.254	0.0515
400.579	0.0511
400.904	0.0499
401.229	0.0494
401.553	0.0481
401.878	0.0477
402.202	0.0474
402.527	0.047
402.851	0.0465
403.175	0.0466
403.5	0.0461
403.824	0.0464
404.148	0.0448
404.472	0.0453
404.796	0.0442
405.119	0.0441
405.443	0.0435
405.767	0.0432
406.09	0.0434
406.414	0.0432
406.737	0.0428
407.061	0.0431
407.384	0.0426
407.707	0.0418
408.03	0.0424
408.353	0.0423
408.676	0.0422
408.999	0.0411
409.322	0.0421
409.645	0.0424
409.968	0.0412
410.29	0.0415
410.613	0.0409
410.935	0.041
411.258	0.0412
411.58	0.0408
411.902	0.0408
412.224	0.0415
412.546	0.0407
412.868	0.0403
413.19	0.0409
413.512	0.0407
413.834	0.0408
414.156	0.041
414.477	0.0407
414.799	0.0409
415.121	0.0408
415.442	0.0405
415.763	0.0401
416.085	0.041
416.406	0.0409
416.727	0.0406
417.048	0.0407
417.369	0.0407
417.69	0.0402
418.011	0.0406
418.331	0.0411
418.652	0.0409
418.973	0.0408
419.293	0.041
419.614	0.0409
419.934	0.0406
420.254	0.0412
420.574	0.0405
420.895	0.0411
421.215	0.0402
421.535	0.0407
421.855	0.0406
422.174	0.0406
422.494	0.041
422.814	0.0414
423.134	0.0416
423.453	0.0409
423.773	0.0411
424.092	0.0409
424.411	0.0409
424.731	0.0416
425.05	0.0415
425.369	0.0414
425.688	0.0416
426.007	0.0419
426.326	0.042
426.644	0.0429
426.963	0.0422
427.282	0.0429
427.6	0.0419
427.919	0.0421
428.237	0.0425
428.556	0.0425
428.874	0.0423
429.192	0.0415
429.51	0.0424
429.828	0.0423
430.146	0.0427
430.464	0.0425
430.782	0.0425
431.1	0.0424
431.418	0.0425
431.735	0.0425
432.053	0.0433
432.37	0.0424
432.688	0.0428
433.005	0.0426
433.322	0.0426
433.639	0.0425
433.957	0.0423
434.274	0.0429
434.591	0.0426
434.907	0.0435
435.224	0.0427
435.541	0.0435
435.858	0.0437
436.174	0.0438
436.491	0.0434
436.807	0.0426
437.124	0.0424
437.44	0.0422
437.756	0.0421
438.072	0.0421
438.388	0.043
438.704	0.0428
439.02	0.0438
439.336	0.0428
439.652	0.0429
439.968	0.0431
440.283	0.0425
440.599	0.0433
440.914	0.0423
441.23	0.0427
441.545	0.0425
441.86	0.0428
442.175	0.0431
442.491	0.0423
442.806	0.0423
443.121	0.043
443.435	0.0421
443.75	0.0423
444.065	0.0425
444.38	0.043
444.694	0.0419
445.009	0.0422
445.323	0.0423
445.638	0.0424
445.952	0.0424
446.266	0.0418
446.58	0.0424
446.894	0.0419
447.208	0.043
447.522	0.0425
447.836	0.0412
448.15	0.0418
448.464	0.0417
448.777	0.0414
449.091	0.0408
449.404	0.0418
449.718	0.042
450.031	0.0415
450.345	0.0405
450.658	0.0408
450.971	0.0409
451.284	0.0401
451.597	0.0403
451.91	0.0414
452.223	0.0408
452.535	0.0414
452.848	0.0402
453.161	0.0408
453.473	0.0409
453.786	0.0405
454.098	0.04
454.411	0.04
454.723	0.0396
455.035	0.04
455.347	0.0394
455.659	0.0404
455.971	0.0394
456.283	0.0403
456.595	0.0399
456.907	0.0397
457.218	0.0392
457.53	0.0394
457.841	0.0387
458.153	0.038
458.464	0.0385
458.776	0.0372
459.087	0.0375
459.398	0.0381
459.709	0.0378
460.02	0.0374
460.331	0.0369
460.642	0.037
460.953	0.0372
461.263	0.0373
461.574	0.0368
461.885	0.0363
462.195	0.037
462.506	0.0365
462.816	0.0362
463.126	0.0352
463.437	0.0359
463.747	0.0343
464.057	0.0358
464.367	0.0354
464.677	0.0348
464.987	0.0349
465.296	0.0346
465.606	0.0344
465.916	0.034
466.225	0.0335
466.535	0.0338
466.844	0.0333
467.154	0.0331
467.463	0.0326
467.772	0.0333
468.081	0.0328
468.39	0.0328
468.699	0.0324
469.008	0.0328
469.317	0.0323
469.626	0.0319
469.935	0.0324
470.243	0.0324
470.552	0.0323
470.86	0.0319
471.169	0.0314
471.477	0.0317
471.785	0.0322
472.093	0.031
472.402	0.0305
472.71	0.03
473.018	0.0295
473.326	0.0289
473.633	0.03
473.941	0.0296
474.249	0.0291
474.556	0.0293
474.864	0.0291
475.171	0.0284
475.479	0.0286
475.786	0.029
476.094	0.028
476.401	0.0285
476.708	0.0288
477.015	0.0284
477.322	0.0278
477.629	0.0278
477.936	0.0267
478.242	0.0267
478.549	0.0271
478.856	0.0264
479.162	0.0261
479.469	0.0263
479.775	0.0262
480.081	0.0254
480.388	0.0256
480.694	0.0256
481	0.0254
481.306	0.0254
481.612	0.0251
481.918	0.0233
482.224	0.025
482.53	0.024
482.835	0.0242
483.141	0.0228
483.446	0.0229
483.752	0.0233
484.057	0.0222
484.363	0.0222
484.668	0.0222
484.973	0.0218
485.278	0.0213
485.583	0.0215
485.888	0.0211
486.193	0.0214
486.498	0.0215
486.803	0.0223
487.107	0.0211
487.412	0.0207
487.717	0.0197
488.021	0.0212
488.325	0.0194
488.63	0.0193
488.934	0.02
489.238	0.0203
489.542	0.0197
489.846	0.0187
490.15	0.0199
490.454	0.0194
490.758	0.0189
491.062	0.019
491.366	0.0186
491.669	0.0186
491.973	0.0181
492.276	0.0182
492.58	0.0166
492.883	0.0182
493.186	0.0178
493.489	0.0182
493.792	0.0179
494.096	0.0174
494.399	0.0167
494.701	0.0169
495.004	0.0166
495.307	0.0161
495.61	0.015
495.912	0.015
496.215	0.0154
496.517	0.0153
496.82	0.0152
497.122	0.0156
497.424	0.014
497.727	0.0149
498.029	0.0147
498.331	0.0152
498.633	0.0147
498.935	0.0145
499.237	0.014
499.538	0.0133
499.84	0.0134
500.142	0.0142
500.443	0.0146
500.745	0.0135
501.046	0.0136
501.348	0.0127
501.649	0.0138
501.95	0.0121
502.251	0.0129
502.552	0.0122
502.853	0.012
503.154	0.0124
503.455	0.0115
503.756	0.0119
504.057	0.0119
504.357	0.0111
504.658	0.0117
504.958	0.0118
505.259	0.0123
505.559	0.0118
505.859	0.0111
506.16	0.011
506.46	0.0102
506.76	0.011
507.06	0.0098
507.36	0.0113
507.66	0.0106
507.96	0.011
508.259	0.0098
508.559	0.0089
508.859	0.0105
509.158	0.0094
509.457	0.0095
509.757	0.0106
510.056	0.0097
510.355	0.0092
510.655	0.0075
510.954	0.009
511.253	0.0093
511.552	0.009
511.851	0.008
512.149	0.0084
512.448	0.0074
512.747	0.0095
513.045	0.0075
513.344	0.0085
513.642	0.0092
513.941	0.0094
514.239	0.0085
514.537	0.0072
514.836	0.0082
515.134	0.0069
515.432	0.0079
515.73	0.0077
516.028	0.0064
516.326	0.0074
516.623	0.0077
516.921	0.0071
517.219	0.008
517.516	0.0082
517.814	0.0074
518.111	0.0072
518.409	0.0085
518.706	0.0077
519.003	0.0072
519.3	0.0064
519.597	0.0071
519.894	0.0064
520.191	0.0072
520.488	0.0066
520.785	0.0056
521.082	0.0068
521.378	0.0074
521.675	0.0051
521.971	0.0071
522.268	0.0056
522.564	0.0059
522.861	0.0055
523.157	0.005
523.453	0.0063
523.749	0.0059
524.045	0.0062
524.341	0.0058
524.637	0.0056
524.933	0.0045
525.229	0.0057
525.524	0.005
525.82	0.0066
526.115	0.0047
526.411	0.0048
526.706	0.0052
527.002	0.005
527.297	0.0048
527.592	0.0065
527.887	0.0061
528.182	0.0062
528.477	0.0057
528.772	0.004
529.067	0.0048
529.362	0.0057
529.657	0.0051
529.951	0.0046
530.246	0.004
530.54	0.0034
530.835	0.0036
531.129	0.0034
531.423	0.0048
531.718	0.0032
532.012	0.0038
532.306	0.0034
532.6	0.0041
532.894	0.0042
533.188	0.0046
533.482	0.0034
533.775	0.0034
534.069	0.0038
534.363	0.0029
534.656	0.003
534.95	0.0024
535.243	0.0026
535.536	0.0031
535.83	0.004
536.123	0.0029
536.416	0.004
536.709	0.0038
537.002	0.0041
537.295	0.0035
537.588	0.0036
537.881	0.003
538.173	0.0034
538.466	0.0032
538.759	0.0029
539.051	0.0022
539.344	0.0034
539.636	0.0031
539.928	0.0033
540.22	0.0036
540.513	0.0041
540.805	0.0031
541.097	0.0038
541.389	0.004
541.681	0.0033
541.972	0.0034
542.264	0.002
542.556	0.0039
542.847	0.0037
543.139	0.0037
543.431	0.0042
543.722	0.0028
544.013	0.0042
544.305	0.0052
544.596	0.0055
544.887	0.0034
545.178	0.0022
545.469	0.0031
545.76	0.0026
546.051	0.0044
546.342	0.0043
546.632	0.0027
546.923	0.0023
547.214	0.0031
547.504	0.0028
547.795	0.0029
548.085	0.0033
548.375	0.0028
548.666	0.0032
548.956	0.0025
549.246	0.0032
549.536	0.003
549.826	0.0038
550.116	0.0043
550.406	0.0036
550.695	0.004
550.985	0.0035
551.275	0.0046
551.564	0.0037
551.854	0.0043
552.143	0.0034
552.433	0.0039
552.722	0.0037
553.011	0.0038
553.3	0.0038
553.589	0.0031
553.879	0.0029
554.167	0.0038
554.456	0.003
554.745	0.0036
555.034	0.0024
555.323	0.0016
555.611	0.0023
555.9	0.0036
556.188	0.003
556.477	0.0027
556.765	0.0012
557.053	0.0029
557.342	0.0017
557.63	0.0031
557.918	0.0037
558.206	0.0024
558.494	0.0027
558.782	0.0031
559.069	0.0029
559.357	0.0032
559.645	0.0017
559.932	0.0023
560.22	0.0037
560.507	0.0034
560.795	0.003
561.082	0.0029
561.37	0.0032
561.657	0.003
561.944	0.0039
562.231	0.0029
562.518	0.0026
562.805	0.003
563.092	0.0031
563.379	0.0032
563.665	0.003
563.952	0.0036
564.239	0.0035
564.525	0.0043
564.811	0.0037
565.098	0.0043
565.384	0.0043
565.67	0.0037
565.957	0.0034
566.243	0.0032
566.529	0.0031
566.815	0.0048
567.101	0.0027
567.387	0.0029
567.672	0.0027
567.958	0.0034
568.244	0.0033
568.529	0.0031
568.815	0.0029
569.1	0.0033
569.386	0.0033
569.671	0.0029
569.956	0.0034
570.242	0.0031
570.527	0.003
570.812	0.0035
571.097	0.0033
571.382	0.0037
571.666	0.0028
571.951	0.0028
572.236	0.0035
572.521	0.0032
572.805	0.0039
573.09	0.0026
573.374	0.0021
573.659	0.0021
573.943	0.0029
574.227	0.0031
574.511	0.0041
574.795	0.0034
575.079	0.003
575.363	0.0027
575.647	0.0037
575.931	0.0039
576.215	0.0031
576.499	0.0025
576.782	0.0032
577.066	0.0022
577.349	0.003
577.633	0.0038
577.916	0.0032
578.2	0.0038
578.483	0.0041
578.766	0.003
579.049	0.004
579.332	0.0035
579.615	0.0036
579.898	0.0035
580.181	0.0039
580.464	0.0039
580.746	0.0025
581.029	0.0036
581.312	0.0027
581.594	0.0022
581.877	0.0038
582.159	0.0042
582.441	0.0029
582.724	0.0032
583.006	0.0028
583.288	0.0023
583.57	0.0025
583.852	0.0019
584.134	0.0025
584.416	0.003
584.697	0.0028
584.979	0.003
585.261	0.0033
585.542	0.0038
585.824	0.0034
586.105	0.0042
586.387	0.0034
586.668	0.0033
586.949	0.0026
587.231	0.0023
587.512	0.0031
587.793	0.0031
588.074	0.0032
588.355	0.0034
588.636	0.0039
588.916	0.0041
589.197	0.0039
589.478	0.0031
589.758	0.003
590.039	0.0036
590.319	0.0036
590.6	0.0028
590.88	0.0026
591.16	0.0029
591.441	0.0037
591.721	0.0027
592.001	0.0034
592.281	0.0031
592.561	0.0039
592.841	0.0034
593.12	0.0034
593.4	0.0028
593.68	0.0034
593.959	0.0034
594.239	0.0047
594.518	0.003
594.798	0.0036
595.077	0.0032
595.356	0.003
595.636	0.0029
595.915	0.0034
596.194	0.0036
596.473	0.0031
596.752	0.0028
597.031	0.0024
597.31	0.0017
597.588	0.003
597.867	0.0021
598.146	0.0022
598.424	0.0027
598.703	0.0027
598.981	0.0021
599.259	0.0032
599.538	0.0041
599.816	0.0033
600.094	0.0027
600.372	0.0035
600.65	0.0037
600.928	0.0034
601.206	0.0037
601.484	0.0033
601.762	0.0033
602.04	0.0025
602.317	0.0029
602.595	0.0022
602.872	0.0029
603.15	0.0025
603.427	0.0019
603.704	0.0015
603.982	0.0023
604.259	0.0024
604.536	0.002
604.813	0.0031
605.09	0.0021
605.367	0.0021
605.644	0.0025
605.921	0.0034
606.197	0.0023
606.474	0.0031
606.751	0.0029
607.027	0.0028
607.304	0.0025
607.58	0.0024
607.856	0.0026
608.133	0.0032
608.409	0.0033
608.685	0.0024
608.961	0.0036
609.237	0.0026
609.513	0.0026
609.789	0.0028
610.065	0.0022
610.341	0.0023
610.616	0.0028
610.892	0.0035
611.167	0.0032
611.443	0.003
611.718	0.0026
611.994	0.0021
612.269	0.0031
612.544	0.0031
612.819	0.0022
613.095	0.0032
613.37	0.0029
613.645	0.0021
613.919	0.0021
614.194	0.0026
614.469	0.0019
614.744	0.0015
615.019	0.0015
615.293	0.0015
615.568	0.0015
615.842	0.0013
616.116	0.0012
616.391	0.001
616.665	0.0021
616.939	0.0016
617.213	0.0027
617.488	0.0015
617.762	0.0017
618.035	0.0012
618.309	0.0015
618.583	0.0019
618.857	0.0022
619.131	0.0022
619.404	0.0017
619.678	0.0017
619.951	0.0009
620.225	0.001
620.498	0.0021
620.771	0.0021
621.045	0.0032
621.318	0.0016
621.591	0.0019
621.864	0.0011
622.137	0.0013
622.41	0.0013
622.683	0.0007
622.956	0.0019
623.228	0.0021
623.501	0.0024
623.774	0.003
624.046	0.0018
624.319	0.002
624.591	0.001
624.863	0.002
625.136	0.002
625.408	0.0016
625.68	0.0019
625.952	0.0028
626.224	0.0024
626.496	0.0012
626.768	0.0012
627.04	0.0022
627.311	0.0014
627.583	0.0017
627.855	0.0021
628.126	0.0027
628.398	0.0025
628.669	0.0019
628.941	0.0011
629.212	0.0005
629.483	0.0006
629.755	0.0006
630.026	0.0003
630.297	-0.0003
630.568	-0.0006
630.839	-0.0005
631.11	-0
631.38	-0.0006
631.651	-0.0001
631.922	-0.0008
632.192	-0.0004
632.463	-0.0011
632.733	-0.0014
633.004	0.0002
633.274	-0.0007
633.545	0.0013
633.815	0.0017
634.085	0.0018
634.355	0.0007
634.625	0.003
634.895	0.0016
635.165	-0
635.435	0.0006
635.705	0.0009
635.974	-0.0002
636.244	0.0012
636.514	0.0011
636.783	0.0013
637.053	0.0019
637.322	0
637.591	0.0015
637.861	0.0006
638.13	0.0017
638.399	0.0007
638.668	0.0018
638.937	-0.0002
639.206	0.0008
639.475	0.0007
639.744	0.0008
640.013	0.001
640.281	0.0026
640.55	0.0022
640.819	0.0027
641.087	0.0024
641.356	0.001
641.624	0.0014
641.892	0.001
642.161	0.0019
642.429	0.0024
642.697	0.0023
642.965	0.0034
643.233	0.0023
643.501	0.0015
643.769	0.0019
644.037	0.0008
644.305	0.0006
644.572	0.0003
644.84	-0
645.108	0.0004
645.375	-0.0001
645.643	0
645.91	-0.0002
646.177	0.0016
646.445	0.0031
646.712	0.0035
646.979	0.0039
647.246	0.0031
647.513	0.003
647.78	0.0028
648.047	0.0034
648.314	0.0025
648.58	0.0024
648.847	0.0013
649.114	0.0002
649.38	0.0003
649.647	0.0008
649.913	0.0013
650.18	0.0012
650.446	0.0013
650.712	0.0012
650.978	0.0013
651.245	0.0014
651.511	0.0015
651.777	0.001
652.043	0.0023
652.309	0.0019
652.574	0.0029
652.84	0.0015
653.106	0.0003
653.371	-0.0002
653.637	0.0009
653.903	0.0017
654.168	0.0017
654.433	0.0023
654.699	0.0024
654.964	0.0026
655.229	0.0024
655.494	0.0018
655.759	-0.0001
656.024	0.0009
656.289	-0
656.554	0.0032
656.819	0.0014
657.084	0.002
657.349	0.0017
657.613	0.0023
657.878	0.0023
658.142	0.0026
658.407	0.003
658.671	0.0027
658.936	0.0017
659.2	0.0004
659.464	0.0013
659.728	0.001
659.992	0.0012
660.256	0.0005
660.52	0.0009
660.784	-0.0004
661.048	0.0002
661.312	-0.0009
661.575	-0.0009
661.839	-0.0021
662.103	-0.0019
662.366	-0.0031
662.63	-0.0016
662.893	-0.0009
663.156	-0.0009
663.42	-0.0005
663.683	-0.0012
663.946	0.0001
664.209	0.002
664.472	0.002
664.735	0.0017
664.998	0.0015
665.261	0.0009
665.524	0.0002
665.786	0.0005
666.049	0.0008
666.312	0.0001
666.574	0.0009
666.837	-0.0006
667.099	-0.0013
667.361	-0.002
667.624	-0.0011
667.886	-0.0009
668.148	-0.0006
668.41	0.0012
668.672	-0.0004
668.934	0.0001
669.196	-0.0001
669.458	0.0006
669.72	0.0009
669.982	0.001
670.243	0.0021
670.505	0.0016
670.766	0.0011
671.028	0.002
671.289	0.0007
671.551	0.0004
671.812	-0.0006
672.073	0.0007
672.334	-0.0001
672.596	0.0009
672.857	-0.0002
673.118	-0.0004
673.379	-0.0009
673.639	-0.0016
673.9	-0.0006
674.161	-0.0025
674.422	-0.0029
674.682	-0.0026
674.943	-0.0023
675.203	-0.0007
675.464	-0.0018
675.724	0.0001
675.985	0.0005
676.245	0.0003
676.505	0.0023
676.765	0.0014
677.025	0.0014
677.285	0.0015
677.545	0.002
677.805	0.0024
678.065	0.0027
678.325	0.0022
678.585	0.002
678.844	0.002
679.104	0.002
679.363	0.0015
679.623	0.0025
679.882	0.0026
680.142	0.0034
680.401	0.0032
680.66	0.004
680.919	0.0035
681.178	0.0038
681.437	0.0038
681.696	0.0028
681.955	0.0036
682.214	0.0039
682.473	0.0042
682.732	0.0033
682.99	0.0026
683.249	0.0027
683.508	0.0025
683.766	0.0023
684.024	0.0029
684.283	0.0024
684.541	0.0023
684.799	0.0036
685.058	0.0025
685.316	0.0023
685.574	0.0035
685.832	0.0032
686.09	0.0031
686.348	0.0037
686.606	0.0029
686.863	0.004
687.121	0.0032
687.379	0.0032
687.636	0.0029
687.894	0.0044
688.151	0.004
688.409	0.0037
688.666	0.0034
688.923	0.0046
689.181	0.0028
689.438	0.002
689.695	0.0014
689.952	0.001
690.209	0.0009
690.466	0.0016
690.723	0.0027
690.979	0.0015
691.236	0.0017
691.493	0.0019
691.75	0.0029
692.006	0.0033
692.263	0.0034
692.519	0.0024
692.775	0.002
693.032	0.0001
693.288	0.0016
693.544	0.0021
693.8	0.0017
694.056	0.002
694.313	0.0017
694.568	0.0018
694.824	0.0015
695.08	0.0027
695.336	0.0023
695.592	0.0025
695.847	0.0028
696.103	0.0026
696.359	0.0021
696.614	0.0014
696.869	0.0004
697.125	-0.0001
697.38	0.0008
697.635	0.0001
697.891	0
698.146	-0.0003
698.401	0.0013
698.656	0.0006
698.911	0.0018
699.166	0.0007
699.42	0.0013
699.675	0.0006
699.93	0.0001
700.185	0.0006
700.439	0.0025
700.694	0.0006
700.948	0.0014
701.203	0.0025
701.457	0.0014
701.711	0.0002
701.965	-0.0009
702.22	-0.0006
702.474	-0
702.728	-0.0008
702.982	-0.0008
703.236	-0.0003
703.49	0.0001
703.743	-0.0011
703.997	-0.0004
704.251	0.0006
704.504	0.0004
704.758	-0.0004
705.012	-0.0001
705.265	-0.0003
705.518	-0.0004
705.772	-0.0008
706.025	-0.0009
706.278	0
706.531	-0.001
706.785	-0.0018
707.038	-0.0004
707.291	-0.0005
707.543	0.0001
707.796	0.0001
708.049	-0.0007
708.302	-0.0008
708.555	-0.0003
708.807	0
709.06	-0.0009
709.312	-0.0028
709.565	-0.0015
709.817	-0.0023
710.069	-0.0017
710.322	-0.0013
710.574	-0.0008
710.826	-0.0009
711.078	0.0002
711.33	-0.0004
711.582	-0.0002
711.834	0.0006
712.086	0.001
712.338	0.0013
712.59	0.0013
712.841	0.001
713.093	0.0016
713.344	0.0007
713.596	0.0012
713.847	0.0016
714.099	0.0019
714.35	0.0025
714.601	0.0022
714.853	0.0037
715.104	0.0029
715.355	0.0008
715.606	0.0021
715.857	0.0018
716.108	0.0024
716.359	0.0021
716.609	0.0016
716.86	0.0008
717.111	-0.0001
717.361	-0.0004
717.612	-0.0004
717.863	-0.0007
718.113	-0.0008
718.363	-0.0004
718.614	0.0006
718.864	-0.0002
719.114	-0.0001
719.364	-0.0003
719.614	-0.0016
719.865	-0.0014
720.114	-0.0006
720.364	-0.0002
720.614	0.0005
720.864	0.0016
721.114	0.0014
721.364	0.0023
721.613	0.0032
721.863	0.0026
722.112	0.0027
722.362	0.0028
722.611	0.0028
722.86	0.0009
723.11	0.0005
723.359	0.0007
723.608	0.0023
723.857	0.0029
724.106	0.0045
724.355	0.004
724.604	0.005
724.853	0.0038
725.102	0.003
725.351	0.0015
725.599	0.0016
725.848	0.0014
726.097	0.0008
726.345	0.001
726.594	0.0011
726.842	0.0012
727.09	0.001
727.339	0.0005
727.587	0
727.835	-0.0009
728.083	-0.001
728.331	-0.0009
728.579	-0.0019
728.827	-0.001
729.075	-0.0002
729.323	0.0007
729.571	0.0008
729.818	0.0012
730.066	0.0018
730.314	0.0015
730.561	-0.0002
730.809	-0.0007
731.056	-0.0005
731.303	-0.0005
731.551	-0
731.798	-0.0002
732.045	-0
732.292	-0.0002
732.539	-0.0006
732.786	0.0005
733.033	0.0011
733.28	0.0018
733.527	0.0028
733.774	0.0014
734.021	0.0028
734.267	0.0034
734.514	0.0033
734.76	0.0035
735.007	0.0043
735.253	0.0042
735.5	0.0042
735.746	0.0046
735.992	0.0046
736.238	0.0039
736.485	0.0047
736.731	0.0047
736.977	0.0044
737.223	0.0037
737.469	0.0045
737.715	0.0055
737.96	0.0058
738.206	0.0049
738.452	0.0072
738.697	0.0066
738.943	0.0064
739.189	0.0041
739.434	0.0022
739.679	0.002
739.925	0.002
740.17	0.0015
740.415	0.0013
740.66	0.0017
740.906	0.002
741.151	0.0022
741.396	0.0025
741.641	0.0043
741.886	0.0048
742.13	0.0045
742.375	0.0055
742.62	0.0049
742.865	0.0055
743.109	0.0046
743.354	0.0043
743.598	0.0033
743.843	0.0038
744.087	0.0039
744.331	0.0034
744.576	0.0033
744.82	0.0039
745.064	0.0029
745.308	0.0024
745.552	0.0023
745.796	0.0026
746.04	0.002
746.284	0.0007
746.528	-0
746.771	0.0002
747.015	0.0004
747.259	0.0005
747.502	0.0001
747.746	0.0009
747.989	0.0011
748.233	0.0024
748.476	0.0024
748.719	0.003
748.963	0.0033
749.206	0.0035
749.449	0.0028
749.692	0.0027
749.935	0.004
750.178	0.0019
750.421	0.0031
750.664	0.0037
750.906	0.004
751.149	0.002
751.392	0.0018
751.635	0.0009
751.877	-0.0006
752.12	-0.0009
752.362	0.0002
752.604	-0.0006
752.847	0.0006
753.089	0.001
753.331	0.0014
753.573	0.0008
753.816	0.0025
754.058	0.0026
754.3	0.0033
754.542	0.0032
754.783	0.0025
755.025	0.0021
755.267	0.0002
755.509	-0.0004
755.75	0.0005
755.992	0.0014
756.234	0.0005
756.475	-0.0007
756.716	-0.0004
756.958	-0
757.199	0.0006
757.44	0.0009
757.682	0.001
757.923	0.0008
758.164	0.0004
758.405	-0.0008
758.646	0.0002
758.887	0.0001
759.128	-0.0008
759.369	-0.0009
759.609	-0.0013
759.85	-0.0007
760.091	0.0003
760.331	-0.0006
760.572	-0.001
760.812	-0.0008
761.053	-0.0015
761.293	-0.0004
761.533	0.0003
761.774	-0.0003
762.014	-0.0002
762.254	0.0011
762.494	-0.0003
762.734	-0.0012
762.974	-0.0003
763.214	-0.0009
763.454	-0.0009
763.694	-0.0011
763.933	-0.002
764.173	-0.0001
764.413	-0.0013
764.652	-0.0004
764.892	0.001
765.131	0.0012
765.371	0.0009
765.61	0.0009
765.849	0.0007
766.089	0.0013
766.328	0.0024
766.567	0.002
766.806	0.0023
767.045	0.0024
767.284	0.0023
767.523	0.0034
767.762	0.0033
768.001	0.003
768.239	0.0023
768.478	0.0017
768.717	0.0019
768.955	0.0025
769.194	0.0013
769.432	0.0015
769.671	0.002
769.909	0.0015
770.148	0.0021
770.386	0.0018
770.624	0.0016
770.862	0.0023
771.1	0.0014
771.338	0.0012
771.576	0.0021
771.814	0.0017
772.052	0.0011
772.29	0.002
772.528	0.0023
772.765	0.002
773.003	0.0023
773.24	0.0032
773.478	0.0007
773.716	0.0027
773.953	0.0029
774.19	0.0039
774.428	0.0023
774.665	0.0028
774.902	0.0031
775.139	0.0009
775.376	0.0023
775.613	0.0012
775.85	0.002
776.087	0.0005
776.324	0.0005
776.561	0.0023
776.798	0.0033
777.034	0.0048
777.271	0.0056
777.508	0.0059
777.744	0.0052
777.981	0.0043
778.217	0.0041
778.454	0.0041
778.69	0.003
778.926	0.0035
779.162	0.0032
779.399	0.0027
779.635	0.0034
779.871	0.0025
780.107	0.0033
780.343	0.0032
780.579	0.0048
780.814	0.004
781.05	0.0034
781.286	0.0028
781.522	0.0033
781.757	0.0052
781.993	0.0052
782.228	0.0053
782.464	0.0048
782.699	0.0032
782.934	0.0031
783.17	0.0031
783.405	0.0028
783.64	0.0024
783.875	0.0019
784.11	0.003
784.345	0.003
784.58	0.0029
784.815	0.0018
785.05	0.0028
785.285	0.0012
785.52	0.0006
785.754	0.0013
785.989	0.0005
786.223	0.0002
786.458	0.0004
786.692	0.0009
786.927	-0.0006
787.161	-0.0002
787.396	-0.0008
787.63	-0.0006
787.864	-0.0013
788.098	-0.0009
788.332	-0.0004
788.566	0.0001
788.8	-0.0008
789.034	-0.0003
789.268	0.0002
789.502	0.001
789.736	0.0017
789.969	0.0021
790.203	0.0015
790.437	0.0012
790.67	0.0009
790.904	0.0015
791.137	-0.0003
791.37	-0.0008
791.604	-0.0012
791.837	-0.0013
792.07	-0.0005
792.303	0.0002
792.537	-0.0009
792.77	-0.001
793.003	-0.0012
793.236	-0.0019
793.469	-0.0014
793.701	-0.0011
793.934	-0.001
794.167	-0.0007
794.4	-0.0003
794.632	-0.0001
794.865	-0.0007
795.097	-0.0002
795.33	0.0007
795.562	0.0002
795.795	0.0003
796.027	0.0001
796.259	0.0006
796.491	-0.0008
796.724	-0.0006
796.956	-0.0005
797.188	0.0009
797.42	-0.0001
797.652	0.0002
797.883	-0.0008
798.115	-0.0004
798.347	-0.0014
798.579	-0.0025
798.81	-0.0035
799.042	-0.0032
799.274	-0.0033
799.505	-0.0028
799.737	-0.0034
799.968	-0.0026
800.199	-0.0022
800.431	-0.003
800.662	-0.0012
800.893	-0.0017
801.124	-0.0009
801.355	-0.001
801.586	-0.0001
801.817	-0.0001
802.048	0.0001
802.279	-0.0006
802.51	0.0003
802.741	-0.0016
802.971	-0.0012
803.202	-0.0016
803.433	-0.0019
803.663	-0.0019
803.894	-0.0009
804.124	-0.0008
804.354	-0.0007
804.585	-0.001
804.815	-0.0012
805.045	-0.001
805.275	-0.0015
805.506	-0.0065
805.736	-0.0593
805.966	-0.1476
806.196	-0.0104
