Data from 03 0.2 mM BQDS 0.4 mM K2Cr2O7 1 M H2SO4 5 min_Absorbance_06-27-42-588.txt Node
Date: Wed Dec 08 06:27:42 EST 2021
User: kwabilab-user
Spectrometer: HDX00518
Trigger mode: 0
Integration Time (sec): 5.000000E-2
Scans to average: 50
Nonlinearity correction enabled: false
Boxcar width: 0
Storing dark spectrum: false
XAxis mode: Wavelengths
Number of Pixels in Spectrum: 2068
>>>>>Begin Spectral Data<<<<<
195.27	-0.1085
195.642	0.088
196.014	0.0327
196.386	-0.0512
196.758	-0.0216
197.129	-0.0244
197.501	0.0123
197.872	0.0603
198.244	0.0956
198.615	0.0901
198.986	0.0816
199.357	0.071
199.728	0.0901
200.099	0.0744
200.47	0.0845
200.841	0.0738
201.212	0.0921
201.582	0.0675
201.953	0.0886
202.323	0.0808
202.694	0.0729
203.064	0.0881
203.434	0.0647
203.804	0.0853
204.174	0.0911
204.544	0.0635
204.914	0.0625
205.284	0.0809
205.653	0.0831
206.023	0.0713
206.393	0.078
206.762	0.073
207.131	0.0774
207.501	0.0802
207.87	0.1023
208.239	0.0974
208.608	0.0612
208.977	0.093
209.346	0.0984
209.715	0.0831
210.083	0.1085
210.452	0.0905
210.82	0.1014
211.189	0.1122
211.557	0.1006
211.925	0.128
212.294	0.1213
212.662	0.1276
213.03	0.1336
213.398	0.1192
213.766	0.1474
214.133	0.1414
214.501	0.1727
214.869	0.1484
215.236	0.2027
215.604	0.1919
215.971	0.2135
216.338	0.2279
216.705	0.2449
217.072	0.265
217.439	0.2747
217.806	0.3087
218.173	0.3312
218.54	0.3648
218.907	0.4028
219.273	0.446
219.64	0.4574
220.006	0.513
220.373	0.5348
220.739	0.5817
221.105	0.6239
221.471	0.6415
221.837	0.6916
222.203	0.7256
222.569	0.7644
222.935	0.7925
223.3	0.8228
223.666	0.8485
224.031	0.8664
224.397	0.8908
224.762	0.9129
225.127	0.9309
225.493	0.9446
225.858	0.9544
226.223	0.9564
226.588	0.9738
226.952	0.9796
227.317	0.9903
227.682	0.9818
228.046	0.9725
228.411	0.9864
228.775	0.982
229.14	0.9813
229.504	0.9676
229.868	0.967
230.232	0.9634
230.596	0.9563
230.96	0.9504
231.324	0.9355
231.688	0.929
232.052	0.9287
232.415	0.9136
232.779	0.9093
233.142	0.8961
233.505	0.8866
233.869	0.8789
234.232	0.8754
234.595	0.8626
234.958	0.8567
235.321	0.847
235.684	0.8345
236.047	0.8267
236.409	0.8209
236.772	0.8069
237.134	0.7998
237.497	0.794
237.859	0.7846
238.222	0.7763
238.584	0.7683
238.946	0.7593
239.308	0.7517
239.67	0.7446
240.032	0.7375
240.393	0.7295
240.755	0.723
241.117	0.7174
241.478	0.7107
241.84	0.7011
242.201	0.6972
242.562	0.6929
242.924	0.686
243.285	0.6803
243.646	0.6752
244.007	0.6699
244.368	0.6674
244.728	0.6647
245.089	0.6591
245.45	0.6537
245.81	0.6488
246.171	0.6434
246.531	0.6408
246.891	0.639
247.252	0.6346
247.612	0.631
247.972	0.6284
248.332	0.6272
248.692	0.6214
249.051	0.6184
249.411	0.6158
249.771	0.6116
250.13	0.6121
250.49	0.6112
250.849	0.6076
251.208	0.6063
251.568	0.6028
251.927	0.6019
252.286	0.6011
252.645	0.5972
253.004	0.5953
253.363	0.5939
253.721	0.5952
254.08	0.5931
254.439	0.592
254.797	0.5894
255.155	0.5885
255.514	0.5856
255.872	0.5857
256.23	0.5837
256.588	0.5815
256.946	0.5811
257.304	0.5807
257.662	0.5789
258.02	0.5781
258.377	0.5753
258.735	0.5748
259.093	0.574
259.45	0.5729
259.807	0.5727
260.165	0.5714
260.522	0.5681
260.879	0.5656
261.236	0.5671
261.593	0.5635
261.95	0.5603
262.306	0.56
262.663	0.5572
263.02	0.5573
263.376	0.5557
263.733	0.5528
264.089	0.5541
264.445	0.5499
264.802	0.5475
265.158	0.5448
265.514	0.5448
265.87	0.5428
266.226	0.5383
266.581	0.5377
266.937	0.5352
267.293	0.5334
267.648	0.5318
268.004	0.5276
268.359	0.5265
268.714	0.523
269.07	0.5214
269.425	0.5181
269.78	0.5174
270.135	0.5138
270.49	0.511
270.844	0.5088
271.199	0.5063
271.554	0.5042
271.908	0.5003
272.263	0.4978
272.617	0.4942
272.972	0.4919
273.326	0.4896
273.68	0.4866
274.034	0.4832
274.388	0.4808
274.742	0.4767
275.096	0.4722
275.45	0.4701
275.803	0.466
276.157	0.4612
276.51	0.4572
276.864	0.4553
277.217	0.4532
277.571	0.4478
277.924	0.4447
278.277	0.4411
278.63	0.4357
278.983	0.4331
279.336	0.429
279.688	0.4255
280.041	0.4225
280.394	0.4177
280.746	0.4155
281.099	0.4098
281.451	0.4061
281.803	0.4028
282.156	0.3998
282.508	0.395
282.86	0.3911
283.212	0.3867
283.564	0.3838
283.916	0.379
284.267	0.3752
284.619	0.3713
284.971	0.3667
285.322	0.3638
285.673	0.3602
286.025	0.3576
286.376	0.3533
286.727	0.3478
287.078	0.345
287.429	0.3416
287.78	0.3369
288.131	0.3327
288.482	0.3289
288.833	0.3261
289.183	0.3217
289.534	0.3178
289.884	0.3137
290.235	0.3102
290.585	0.3059
290.935	0.3027
291.285	0.2988
291.635	0.296
291.985	0.2914
292.335	0.2876
292.685	0.284
293.035	0.2806
293.384	0.2764
293.734	0.2724
294.083	0.2697
294.433	0.2654
294.782	0.2625
295.131	0.2589
295.48	0.2556
295.829	0.2518
296.179	0.2475
296.527	0.2452
296.876	0.2417
297.225	0.2394
297.574	0.2353
297.922	0.232
298.271	0.2291
298.619	0.2259
298.968	0.2235
299.316	0.2197
299.664	0.2173
300.012	0.2149
300.36	0.2113
300.708	0.209
301.056	0.2069
301.404	0.2039
301.752	0.2013
302.099	0.1992
302.447	0.1971
302.794	0.1945
303.142	0.192
303.489	0.1899
303.836	0.187
304.183	0.1855
304.531	0.1841
304.878	0.1823
305.224	0.1799
305.571	0.1785
305.918	0.1771
306.265	0.1759
306.611	0.174
306.958	0.1722
307.304	0.1715
307.651	0.1704
307.997	0.1692
308.343	0.1676
308.689	0.1664
309.035	0.1657
309.381	0.1652
309.727	0.1637
310.073	0.1632
310.419	0.1618
310.764	0.1613
311.11	0.161
311.455	0.1605
311.801	0.1595
312.146	0.1594
312.491	0.1591
312.837	0.1586
313.182	0.1588
313.527	0.1584
313.872	0.1577
314.216	0.1582
314.561	0.1572
314.906	0.1576
315.251	0.1579
315.595	0.1573
315.94	0.1575
316.284	0.1574
316.628	0.1573
316.972	0.1578
317.317	0.1579
317.661	0.1588
318.005	0.1592
318.348	0.159
318.692	0.1598
319.036	0.1604
319.38	0.1607
319.723	0.1617
320.067	0.1618
320.41	0.1626
320.754	0.1633
321.097	0.1638
321.44	0.1646
321.783	0.1651
322.126	0.1667
322.469	0.1677
322.812	0.1687
323.155	0.1695
323.498	0.1708
323.84	0.1711
324.183	0.1723
324.525	0.1732
324.868	0.1739
325.21	0.1752
325.552	0.1766
325.894	0.1777
326.236	0.1787
326.578	0.1799
326.92	0.1807
327.262	0.1816
327.604	0.1825
327.946	0.1841
328.287	0.1855
328.629	0.1863
328.97	0.1876
329.312	0.1887
329.653	0.191
329.994	0.1919
330.335	0.1937
330.676	0.1942
331.017	0.1947
331.358	0.1972
331.699	0.1984
332.04	0.1997
332.38	0.2004
332.721	0.2028
333.061	0.2031
333.402	0.2049
333.742	0.2059
334.083	0.2077
334.423	0.208
334.763	0.2092
335.103	0.2113
335.443	0.2113
335.783	0.2122
336.123	0.2131
336.462	0.2144
336.802	0.2155
337.141	0.217
337.481	0.2177
337.82	0.2186
338.16	0.2184
338.499	0.2209
338.838	0.2213
339.177	0.2224
339.516	0.2232
339.855	0.2245
340.194	0.2255
340.533	0.2259
340.872	0.2279
341.21	0.2287
341.549	0.2288
341.887	0.2296
342.226	0.2302
342.564	0.2297
342.902	0.2306
343.24	0.2305
343.578	0.2313
343.916	0.2316
344.254	0.2323
344.592	0.2315
344.93	0.2322
345.268	0.2327
345.605	0.2328
345.943	0.2323
346.28	0.233
346.618	0.2327
346.955	0.2334
347.292	0.2332
347.629	0.2338
347.966	0.2335
348.303	0.233
348.64	0.2337
348.977	0.2336
349.314	0.2338
349.65	0.2334
349.987	0.2341
350.324	0.2334
350.66	0.2322
350.996	0.2327
351.333	0.2315
351.669	0.2307
352.005	0.2303
352.341	0.2303
352.677	0.2293
353.013	0.2282
353.349	0.2275
353.685	0.2266
354.02	0.2254
354.356	0.2246
354.691	0.2226
355.027	0.2225
355.362	0.2211
355.697	0.2205
356.033	0.2195
356.368	0.2184
356.703	0.2183
357.038	0.2172
357.373	0.2161
357.707	0.2155
358.042	0.2143
358.377	0.2133
358.711	0.212
359.046	0.2109
359.38	0.2103
359.715	0.2099
360.049	0.2077
360.383	0.2071
360.717	0.2056
361.051	0.2039
361.385	0.2037
361.719	0.2017
362.053	0.2012
362.387	0.1978
362.72	0.1963
363.054	0.1946
363.387	0.1926
363.721	0.1919
364.054	0.1893
364.387	0.1878
364.721	0.1869
365.054	0.1849
365.387	0.1835
365.72	0.1818
366.053	0.1801
366.385	0.1783
366.718	0.1771
367.051	0.1754
367.383	0.1741
367.716	0.173
368.048	0.1717
368.381	0.1707
368.713	0.1697
369.045	0.1681
369.377	0.1666
369.709	0.1653
370.041	0.1638
370.373	0.1627
370.705	0.1607
371.037	0.1592
371.368	0.1577
371.7	0.1561
372.031	0.1546
372.363	0.1528
372.694	0.1511
373.025	0.1497
373.356	0.1484
373.688	0.1455
374.019	0.1428
374.35	0.1419
374.68	0.1398
375.011	0.1381
375.342	0.1361
375.673	0.1345
376.003	0.1326
376.334	0.1304
376.664	0.1294
376.995	0.1273
377.325	0.1268
377.655	0.1253
377.985	0.1234
378.315	0.1225
378.645	0.121
378.975	0.1197
379.305	0.1184
379.635	0.118
379.964	0.1157
380.294	0.1145
380.623	0.1131
380.953	0.1125
381.282	0.111
381.611	0.1091
381.941	0.108
382.27	0.1065
382.599	0.1054
382.928	0.1041
383.257	0.1029
383.585	0.1023
383.914	0.1001
384.243	0.0991
384.571	0.0973
384.9	0.0953
385.228	0.0933
385.557	0.0923
385.885	0.0909
386.213	0.0896
386.541	0.0881
386.869	0.0864
387.197	0.0846
387.525	0.0831
387.853	0.082
388.181	0.0809
388.508	0.0797
388.836	0.078
389.164	0.0775
389.491	0.0766
389.818	0.0748
390.146	0.0735
390.473	0.072
390.8	0.0714
391.127	0.0702
391.454	0.07
391.781	0.0686
392.108	0.0677
392.435	0.0663
392.761	0.0652
393.088	0.0648
393.415	0.0647
393.741	0.0643
394.067	0.0629
394.394	0.0628
394.72	0.0615
395.046	0.0604
395.372	0.059
395.698	0.0583
396.024	0.0578
396.35	0.0571
396.676	0.0563
397.001	0.0561
397.327	0.0542
397.653	0.0536
397.978	0.0525
398.303	0.0516
398.629	0.0512
398.954	0.0506
399.279	0.05
399.604	0.0494
399.929	0.0489
400.254	0.0483
400.579	0.0479
400.904	0.0463
401.229	0.0465
401.553	0.0456
401.878	0.0444
402.202	0.0448
402.527	0.0447
402.851	0.0444
403.175	0.0436
403.5	0.0428
403.824	0.0437
404.148	0.0433
404.472	0.0429
404.796	0.0418
405.119	0.0413
405.443	0.0412
405.767	0.0404
406.09	0.0404
406.414	0.0411
406.737	0.0399
407.061	0.0405
407.384	0.0405
407.707	0.0395
408.03	0.0402
408.353	0.0399
408.676	0.0397
408.999	0.0394
409.322	0.0397
409.645	0.0392
409.968	0.0393
410.29	0.0388
410.613	0.0388
410.935	0.0388
411.258	0.0393
411.58	0.0392
411.902	0.0388
412.224	0.039
412.546	0.0388
412.868	0.0388
413.19	0.039
413.512	0.0384
413.834	0.0387
414.156	0.0395
414.477	0.0387
414.799	0.0385
415.121	0.0391
415.442	0.0388
415.763	0.039
416.085	0.0388
416.406	0.0393
416.727	0.0391
417.048	0.0385
417.369	0.0388
417.69	0.0381
418.011	0.0386
418.331	0.0389
418.652	0.0388
418.973	0.039
419.293	0.0391
419.614	0.039
419.934	0.0385
420.254	0.0394
420.574	0.0389
420.895	0.0393
421.215	0.0386
421.535	0.0382
421.855	0.039
422.174	0.0383
422.494	0.0393
422.814	0.0397
423.134	0.039
423.453	0.0394
423.773	0.0403
424.092	0.0397
424.411	0.0391
424.731	0.0401
425.05	0.0394
425.369	0.0401
425.688	0.0396
426.007	0.0401
426.326	0.0405
426.644	0.041
426.963	0.0411
427.282	0.0409
427.6	0.0407
427.919	0.0406
428.237	0.0404
428.556	0.0411
428.874	0.0406
429.192	0.0395
429.51	0.0405
429.828	0.0405
430.146	0.0409
430.464	0.0412
430.782	0.0399
431.1	0.0413
431.418	0.0405
431.735	0.0405
432.053	0.041
432.37	0.0413
432.688	0.0407
433.005	0.0408
433.322	0.0414
433.639	0.0407
433.957	0.0409
434.274	0.0411
434.591	0.0412
434.907	0.0413
435.224	0.0407
435.541	0.0411
435.858	0.042
436.174	0.0418
436.491	0.0418
436.807	0.041
437.124	0.0404
437.44	0.0409
437.756	0.0408
438.072	0.0401
438.388	0.0412
438.704	0.0414
439.02	0.0415
439.336	0.0402
439.652	0.0413
439.968	0.0416
440.283	0.0402
440.599	0.0413
440.914	0.0412
441.23	0.0407
441.545	0.041
441.86	0.0409
442.175	0.0409
442.491	0.0404
442.806	0.0402
443.121	0.041
443.435	0.0406
443.75	0.0406
444.065	0.0404
444.38	0.0404
444.694	0.0403
445.009	0.0401
445.323	0.0406
445.638	0.0396
445.952	0.0404
446.266	0.0399
446.58	0.0403
446.894	0.04
447.208	0.0403
447.522	0.0405
447.836	0.039
448.15	0.0393
448.464	0.0396
448.777	0.0399
449.091	0.0389
449.404	0.04
449.718	0.0398
450.031	0.0395
450.345	0.0385
450.658	0.0391
450.971	0.0387
451.284	0.0385
451.597	0.0388
451.91	0.0394
452.223	0.0393
452.535	0.0391
452.848	0.0387
453.161	0.0386
453.473	0.0384
453.786	0.0386
454.098	0.0384
454.411	0.0386
454.723	0.0377
455.035	0.0381
455.347	0.0394
455.659	0.0391
455.971	0.039
456.283	0.0378
456.595	0.0383
456.907	0.0379
457.218	0.0379
457.53	0.0372
457.841	0.0372
458.153	0.0367
458.464	0.0368
458.776	0.0359
459.087	0.0356
459.398	0.0364
459.709	0.0357
460.02	0.0357
460.331	0.0354
460.642	0.0355
460.953	0.0356
461.263	0.0362
461.574	0.0351
461.885	0.0351
462.195	0.0344
462.506	0.0347
462.816	0.0352
463.126	0.0342
463.437	0.0339
463.747	0.0341
464.057	0.0337
464.367	0.0336
464.677	0.0335
464.987	0.0328
465.296	0.0324
465.606	0.0325
465.916	0.032
466.225	0.0322
466.535	0.0323
466.844	0.032
467.154	0.0317
467.463	0.032
467.772	0.0323
468.081	0.0315
468.39	0.0312
468.699	0.0311
469.008	0.0313
469.317	0.0315
469.626	0.0309
469.935	0.0304
470.243	0.0308
470.552	0.0309
470.86	0.0303
471.169	0.0302
471.477	0.0303
471.785	0.0303
472.093	0.03
472.402	0.0288
472.71	0.0289
473.018	0.0282
473.326	0.0284
473.633	0.0285
473.941	0.0287
474.249	0.028
474.556	0.0275
474.864	0.0276
475.171	0.0267
475.479	0.028
475.786	0.0281
476.094	0.0277
476.401	0.0276
476.708	0.0265
477.015	0.027
477.322	0.0267
477.629	0.026
477.936	0.0254
478.242	0.0259
478.549	0.0251
478.856	0.0252
479.162	0.0253
479.469	0.0256
479.775	0.0255
480.081	0.0239
480.388	0.0244
480.694	0.0236
481	0.0244
481.306	0.0246
481.612	0.0247
481.918	0.0231
482.224	0.0237
482.53	0.0237
482.835	0.0228
483.141	0.0216
483.446	0.0222
483.752	0.0221
484.057	0.0219
484.363	0.0215
484.668	0.0212
484.973	0.021
485.278	0.0208
485.583	0.0203
485.888	0.0202
486.193	0.0201
486.498	0.0202
486.803	0.0207
487.107	0.02
487.412	0.0191
487.717	0.0194
488.021	0.0196
488.325	0.0193
488.63	0.0192
488.934	0.0196
489.238	0.0187
489.542	0.019
489.846	0.0178
490.15	0.0193
490.454	0.0185
490.758	0.0184
491.062	0.0175
491.366	0.0173
491.669	0.0177
491.973	0.0175
492.276	0.0174
492.58	0.0165
492.883	0.0169
493.186	0.0162
493.489	0.0167
493.792	0.0165
494.096	0.0164
494.399	0.0163
494.701	0.0161
495.004	0.0158
495.307	0.0154
495.61	0.0153
495.912	0.0148
496.215	0.015
496.517	0.0148
496.82	0.0138
497.122	0.0146
497.424	0.0143
497.727	0.0142
498.029	0.0152
498.331	0.0148
498.633	0.0147
498.935	0.0136
499.237	0.0141
499.538	0.0126
499.84	0.0132
500.142	0.0132
500.443	0.0127
500.745	0.0128
501.046	0.0132
501.348	0.0125
501.649	0.0123
501.95	0.0123
502.251	0.0114
502.552	0.0117
502.853	0.0113
503.154	0.0111
503.455	0.0109
503.756	0.0114
504.057	0.012
504.357	0.0111
504.658	0.0107
504.958	0.0108
505.259	0.0117
505.559	0.0114
505.859	0.0104
506.16	0.0106
506.46	0.0107
506.76	0.0118
507.06	0.0105
507.36	0.0108
507.66	0.0109
507.96	0.0097
508.259	0.0092
508.559	0.0084
508.859	0.0094
509.158	0.0091
509.457	0.0092
509.757	0.0095
510.056	0.0091
510.355	0.0088
510.655	0.0081
510.954	0.0093
511.253	0.0088
511.552	0.0083
511.851	0.0085
512.149	0.0074
512.448	0.0075
512.747	0.0088
513.045	0.0069
513.344	0.0087
513.642	0.0082
513.941	0.0082
514.239	0.0078
514.537	0.0074
514.836	0.0077
515.134	0.0075
515.432	0.0075
515.73	0.0079
516.028	0.0068
516.326	0.0076
516.623	0.0069
516.921	0.0066
517.219	0.0081
517.516	0.0069
517.814	0.0069
518.111	0.0077
518.409	0.0083
518.706	0.0075
519.003	0.0066
519.3	0.0057
519.597	0.006
519.894	0.0069
520.191	0.0069
520.488	0.007
520.785	0.0052
521.082	0.0066
521.378	0.006
521.675	0.0047
521.971	0.0055
522.268	0.0066
522.564	0.0053
522.861	0.0053
523.157	0.0051
523.453	0.0057
523.749	0.0061
524.045	0.0062
524.341	0.0061
524.637	0.0056
524.933	0.0056
525.229	0.0059
525.524	0.0044
525.82	0.0062
526.115	0.0045
526.411	0.005
526.706	0.0042
527.002	0.0053
527.297	0.004
527.592	0.0058
527.887	0.0058
528.182	0.0045
528.477	0.0061
528.772	0.0046
529.067	0.0052
529.362	0.0044
529.657	0.0041
529.951	0.0048
530.246	0.0048
530.54	0.0035
530.835	0.0038
531.129	0.0037
531.423	0.0053
531.718	0.0041
532.012	0.0047
532.306	0.0038
532.6	0.0033
532.894	0.0034
533.188	0.0048
533.482	0.0031
533.775	0.0043
534.069	0.003
534.363	0.0033
534.656	0.0031
534.95	0.0025
535.243	0.0036
535.536	0.0038
535.83	0.0041
536.123	0.0026
536.416	0.0046
536.709	0.0039
537.002	0.004
537.295	0.0044
537.588	0.0036
537.881	0.0026
538.173	0.0031
538.466	0.0033
538.759	0.0033
539.051	0.0022
539.344	0.0026
539.636	0.0037
539.928	0.0032
540.22	0.0041
540.513	0.003
540.805	0.0037
541.097	0.0038
541.389	0.003
541.681	0.0028
541.972	0.0034
542.264	0.0032
542.556	0.0041
542.847	0.003
543.139	0.0036
543.431	0.0053
543.722	0.0032
544.013	0.0047
544.305	0.005
544.596	0.0052
544.887	0.0044
545.178	0.0037
545.469	0.0038
545.76	0.0039
546.051	0.0047
546.342	0.005
546.632	0.0026
546.923	0.0039
547.214	0.0042
547.504	0.0039
547.795	0.0036
548.085	0.0043
548.375	0.0032
548.666	0.0039
548.956	0.0022
549.246	0.0037
549.536	0.0032
549.826	0.0047
550.116	0.004
550.406	0.0036
550.695	0.0049
550.985	0.0037
551.275	0.0043
551.564	0.0035
551.854	0.0034
552.143	0.0038
552.433	0.0026
552.722	0.004
553.011	0.0032
553.3	0.0037
553.589	0.003
553.879	0.0031
554.167	0.0025
554.456	0.0021
554.745	0.0016
555.034	0.0026
555.323	0.0015
555.611	0.0024
555.9	0.0028
556.188	0.003
556.477	0.0028
556.765	0.0014
557.053	0.0031
557.342	0.0019
557.63	0.0026
557.918	0.0013
558.206	0.0027
558.494	0.003
558.782	0.0028
559.069	0.0035
559.357	0.0031
559.645	0.0019
559.932	0.0033
560.22	0.0033
560.507	0.0028
560.795	0.003
561.082	0.0021
561.37	0.002
561.657	0.0029
561.944	0.0038
562.231	0.0029
562.518	0.0019
562.805	0.004
563.092	0.0042
563.379	0.0037
563.665	0.0032
563.952	0.0034
564.239	0.0044
564.525	0.0048
564.811	0.0045
565.098	0.0032
565.384	0.0047
565.67	0.0031
565.957	0.003
566.243	0.0025
566.529	0.0033
566.815	0.0052
567.101	0.0028
567.387	0.0027
567.672	0.0018
567.958	0.003
568.244	0.0032
568.529	0.0031
568.815	0.0024
569.1	0.0031
569.386	0.0024
569.671	0.0022
569.956	0.0029
570.242	0.0023
570.527	0.0038
570.812	0.0031
571.097	0.0036
571.382	0.0033
571.666	0.0026
571.951	0.0031
572.236	0.0032
572.521	0.0032
572.805	0.0032
573.09	0.0029
573.374	0.0026
573.659	0.0022
573.943	0.0036
574.227	0.0023
574.511	0.0035
574.795	0.0032
575.079	0.0025
575.363	0.0025
575.647	0.0036
575.931	0.0033
576.215	0.0033
576.499	0.0028
576.782	0.0026
577.066	0.0025
577.349	0.0029
577.633	0.0045
577.916	0.0033
578.2	0.004
578.483	0.0031
578.766	0.0028
579.049	0.004
579.332	0.0026
579.615	0.0034
579.898	0.0029
580.181	0.0032
580.464	0.0032
580.746	0.0026
581.029	0.0039
581.312	0.0028
581.594	0.0028
581.877	0.0033
582.159	0.004
582.441	0.0034
582.724	0.0024
583.006	0.0035
583.288	0.0025
583.57	0.0021
583.852	0.0021
584.134	0.0027
584.416	0.0036
584.697	0.003
584.979	0.0037
585.261	0.0031
585.542	0.0033
585.824	0.0034
586.105	0.0035
586.387	0.003
586.668	0.0031
586.949	0.0033
587.231	0.0023
587.512	0.0035
587.793	0.0031
588.074	0.0038
588.355	0.0033
588.636	0.0034
588.916	0.0037
589.197	0.0036
589.478	0.0036
589.758	0.0035
590.039	0.0031
590.319	0.0041
590.6	0.0032
590.88	0.003
591.16	0.0037
591.441	0.0031
591.721	0.0033
592.001	0.0032
592.281	0.0027
592.561	0.0038
592.841	0.0042
593.12	0.0029
593.4	0.002
593.68	0.0027
593.959	0.0034
594.239	0.0037
594.518	0.0021
594.798	0.0027
595.077	0.0026
595.356	0.0031
595.636	0.0026
595.915	0.0033
596.194	0.0021
596.473	0.0032
596.752	0.0028
597.031	0.0026
597.31	0.0022
597.588	0.0024
597.867	0.0031
598.146	0.003
598.424	0.0023
598.703	0.0028
598.981	0.0027
599.259	0.0031
599.538	0.0036
599.816	0.004
600.094	0.0035
600.372	0.0035
600.65	0.0037
600.928	0.0039
601.206	0.0042
601.484	0.0037
601.762	0.0032
602.04	0.0031
602.317	0.0024
602.595	0.0024
602.872	0.0024
603.15	0.0026
603.427	0.0022
603.704	0.0015
603.982	0.0031
604.259	0.0018
604.536	0.0027
604.813	0.0028
605.09	0.003
605.367	0.0028
605.644	0.0026
605.921	0.0026
606.197	0.002
606.474	0.0027
606.751	0.0032
607.027	0.0037
607.304	0.0024
607.58	0.0031
607.856	0.002
608.133	0.0034
608.409	0.0035
608.685	0.0024
608.961	0.0027
609.237	0.0025
609.513	0.0022
609.789	0.0025
610.065	0.0016
610.341	0.0022
610.616	0.0023
610.892	0.003
611.167	0.0039
611.443	0.0028
611.718	0.0029
611.994	0.0021
612.269	0.0027
612.544	0.0028
612.819	0.0024
613.095	0.0034
613.37	0.0022
613.645	0.0026
613.919	0.0019
614.194	0.0033
614.469	0.0024
614.744	0.0022
615.019	0.0024
615.293	0.0016
615.568	0.002
615.842	0.0021
616.116	0.0017
616.391	0.001
616.665	0.0031
616.939	0.0016
617.213	0.0023
617.488	0.0019
617.762	0.0027
618.035	0.0019
618.309	0.0022
618.583	0.0025
618.857	0.0028
619.131	0.003
619.404	0.0021
619.678	0.0024
619.951	0.0018
620.225	0.0009
620.498	0.0016
620.771	0.0012
621.045	0.002
621.318	0.0015
621.591	0.0021
621.864	0.0004
622.137	-0.0009
622.41	0.0012
622.683	0.0007
622.956	0.0018
623.228	0.002
623.501	0.0022
623.774	0.0029
624.046	0.0024
624.319	0.0021
624.591	0.0013
624.863	0.0017
625.136	0.0013
625.408	0.0016
625.68	0.0025
625.952	0.0018
626.224	0.0031
626.496	0.0022
626.768	0.002
627.04	0.0023
627.311	0.0025
627.583	0.0024
627.855	0.0019
628.126	0.0024
628.398	0.0027
628.669	0.0023
628.941	0.0017
629.212	0.0008
629.483	0.0025
629.755	0.0027
630.026	0.0019
630.297	0.0014
630.568	0.0011
630.839	0.0001
631.11	-0.0007
631.38	-0.0008
631.651	-0.0003
631.922	-0.001
632.192	-0.0012
632.463	-0.0005
632.733	0.0002
633.004	-0.0004
633.274	-0.0016
633.545	-0.0001
633.815	0.0014
634.085	0.0013
634.355	0.0009
634.625	0.0019
634.895	0.0011
635.165	-0
635.435	0.0012
635.705	0.0008
635.974	0.0009
636.244	0.0021
636.514	0.0029
636.783	0.0025
637.053	0.0023
637.322	0.0025
637.591	0.0029
637.861	0.0025
638.13	0.0021
638.399	0.002
638.668	0.0018
638.937	0.0011
639.206	0.0013
639.475	0.0009
639.744	0.0035
640.013	0.0036
640.281	0.004
640.55	0.0028
640.819	0.0029
641.087	0.0027
641.356	0.0013
641.624	0.0016
641.892	0.0029
642.161	0.0021
642.429	0.0027
642.697	0.0013
642.965	0.0023
643.233	0.0017
643.501	0.0019
643.769	0.0014
644.037	0.0015
644.305	0.0015
644.572	0.0014
644.84	0.0015
645.108	0.002
645.375	0.001
645.643	0.0015
645.91	0.0014
646.177	0.0031
646.445	0.004
646.712	0.0045
646.979	0.0046
647.246	0.0049
647.513	0.0038
647.78	0.004
648.047	0.0042
648.314	0.0033
648.58	0.0035
648.847	0.0018
649.114	0.0011
649.38	0.0007
649.647	0.0007
649.913	0.0009
650.18	0.0013
650.446	0.0033
650.712	0.0028
650.978	0.0031
651.245	0.0031
651.511	0.0033
651.777	0.0016
652.043	0.002
652.309	0.0019
652.574	0.0027
652.84	0.0012
653.106	0.0001
653.371	0.0001
653.637	-0.0001
653.903	0.0013
654.168	0.0017
654.433	0.0019
654.699	0.0013
654.964	0.003
655.229	0.0023
655.494	0.0028
655.759	0.0028
656.024	0.001
656.289	-0
656.554	0.0011
656.819	0.0009
657.084	0.0022
657.349	0.0019
657.613	0.0027
657.878	0.0018
658.142	0.0009
658.407	0.0016
658.671	0.0006
658.936	-0.0004
659.2	0.0004
659.464	0.0004
659.728	-0.0005
659.992	0
660.256	-0.0007
660.52	-0.0004
660.784	0.0005
661.048	0.0002
661.312	-0.0005
661.575	-0.0012
661.839	-0.0016
662.103	-0.0018
662.366	-0.001
662.63	-0.0002
662.893	0.0001
663.156	0.0004
663.42	0.0001
663.683	0.0005
663.946	0.0015
664.209	0.003
664.472	0.0024
664.735	0.0017
664.998	0.0001
665.261	0.0002
665.524	-0
665.786	0.0007
666.049	0.0002
666.312	-0.0009
666.574	-0.0001
666.837	-0.0013
667.099	-0.0019
667.361	-0.0014
667.624	-0.0018
667.886	-0.0007
668.148	0.0007
668.41	0.0011
668.672	-0.0003
668.934	0.0005
669.196	0.0006
669.458	0.0005
669.72	0.0014
669.982	0.0005
670.243	0.0007
670.505	0.001
670.766	-0
671.028	0.0012
671.289	0.0015
671.551	0.001
671.812	-0.0001
672.073	0.0008
672.334	-0.0007
672.596	0.0009
672.857	-0.0003
673.118	-0
673.379	0
673.639	-0.0001
673.9	0.0014
674.161	-0.0006
674.422	-0.0013
674.682	-0.0012
674.943	-0.0008
675.203	-0.0007
675.464	0.0004
675.724	0.0012
675.985	0.0008
676.245	0.001
676.505	0.0028
676.765	0.0028
677.025	0.0031
677.285	0.0019
677.545	0.003
677.805	0.0026
678.065	0.0026
678.325	0.0027
678.585	0.0025
678.844	0.0023
679.104	0.0009
679.363	0.0015
679.623	0.0017
679.882	0.0018
680.142	0.0024
680.401	0.0026
680.66	0.0029
680.919	0.0031
681.178	0.0036
681.437	0.0042
681.696	0.0041
681.955	0.0036
682.214	0.004
682.473	0.004
682.732	0.0029
682.99	0.0038
683.249	0.0046
683.508	0.0035
683.766	0.0038
684.024	0.0027
684.283	0.0031
684.541	0.0033
684.799	0.0033
685.058	0.003
685.316	0.0026
685.574	0.0033
685.832	0.0044
686.09	0.0042
686.348	0.0045
686.606	0.0047
686.863	0.0044
687.121	0.0045
687.379	0.0037
687.636	0.004
687.894	0.0045
688.151	0.004
688.409	0.004
688.666	0.0028
688.923	0.0026
689.181	0.002
689.438	0.0018
689.695	0.0014
689.952	0.0005
690.209	0.0003
690.466	0.0004
690.723	0.0019
690.979	0.0011
691.236	0.0013
691.493	0.0016
691.75	0.0023
692.006	0.003
692.263	0.0038
692.519	0.0038
692.775	0.0033
693.032	0.0021
693.288	0.0039
693.544	0.0033
693.8	0.0031
694.056	0.0033
694.313	0.0028
694.568	0.0018
694.824	0.0024
695.08	0.0033
695.336	0.0038
695.592	0.0025
695.847	0.0025
696.103	0.0028
696.359	0.0023
696.614	0.0024
696.869	0.0014
697.125	0.0005
697.38	0.0005
697.635	-0.0004
697.891	-0.0003
698.146	-0.001
698.401	0.0003
698.656	-0.0008
698.911	0.0004
699.166	-0.0003
699.42	-0.0003
699.675	-0.0001
699.93	-0.0014
700.185	0.0002
700.439	0.0004
700.694	0.0002
700.948	0.0009
701.203	0.0012
701.457	0.0008
701.711	0.0002
701.965	-0.0004
702.22	-0
702.474	0.0003
702.728	-0.0001
702.982	0.0002
703.236	0.0007
703.49	0.0009
703.743	0.0008
703.997	0.0008
704.251	0.0014
704.504	0.0019
704.758	0.0016
705.012	-0.0006
705.265	0.0003
705.518	-0.0006
705.772	-0.0017
706.025	-0.0008
706.278	-0.0004
706.531	-0.0009
706.785	-0.001
707.038	-0.0001
707.291	-0.0011
707.543	-0.0006
707.796	-0.0018
708.049	-0.0018
708.302	-0.0017
708.555	-0.0015
708.807	-0.0011
709.06	-0.0008
709.312	-0.0025
709.565	-0.0024
709.817	-0.0026
710.069	-0.0024
710.322	-0.0024
710.574	-0.0017
710.826	-0.0009
711.078	-0.0014
711.33	-0.0019
711.582	-0.0021
711.834	-0.0017
712.086	-0.0008
712.338	-0.0002
712.59	-0.0006
712.841	-0.0005
713.093	-0.0013
713.344	-0.001
713.596	-0.0001
713.847	0.0001
714.099	-0
714.35	0.0006
714.601	0.0011
714.853	0.0025
715.104	0.0014
715.355	0.0006
715.606	0.0013
715.857	0.0017
716.108	0.0024
716.359	0.0019
716.609	0.002
716.86	0.0012
717.111	0.0001
717.361	-0.0007
717.612	-0.0003
717.863	-0.0012
718.113	-0.0002
718.363	0.0004
718.614	0.0001
718.864	-0
719.114	0.0012
719.364	0.0005
719.614	-0.0003
719.865	-0.0015
720.114	-0.0003
720.364	-0.0009
720.614	0.0003
720.864	0.0012
721.114	0.001
721.364	0.0019
721.613	0.0022
721.863	0.0032
722.112	0.0026
722.362	0.0026
722.611	0.0025
722.86	0.0011
723.11	0.0005
723.359	0.0012
723.608	0.0019
723.857	0.0021
724.106	0.0043
724.355	0.0047
724.604	0.0054
724.853	0.0037
725.102	0.0031
725.351	0.0027
725.599	0.0031
725.848	0.0025
726.097	0.0022
726.345	0.0019
726.594	0.002
726.842	0.0011
727.09	0.0014
727.339	0.0005
727.587	0.0001
727.835	-0.001
728.083	-0.0008
728.331	-0.0017
728.579	-0.0024
728.827	-0.0022
729.075	-0.0022
729.323	-0.0012
729.571	-0.0008
729.818	-0.0006
730.066	0.0001
730.314	0
730.561	-0.0012
730.809	-0.0012
731.056	-0.0013
731.303	-0.0014
731.551	-0.0008
731.798	-0.0009
732.045	-0.0005
732.292	-0.0012
732.539	-0.0005
732.786	-0.0005
733.033	0.0011
733.28	0.0009
733.527	0.0019
733.774	0.0013
734.021	0.0025
734.267	0.0036
734.514	0.0047
734.76	0.0032
735.007	0.0054
735.253	0.0058
735.5	0.0052
735.746	0.0053
735.992	0.0044
736.238	0.0037
736.485	0.004
736.731	0.0031
736.977	0.0029
737.223	0.0018
737.469	0.0031
737.715	0.0027
737.96	0.0038
738.206	0.0031
738.452	0.0044
738.697	0.0041
738.943	0.0034
739.189	0.0019
739.434	0.0009
739.679	-0.0002
739.925	-0.0009
740.17	-0.0006
740.415	-0.0007
740.66	0.0004
740.906	0.0004
741.151	0.001
741.396	0.0011
741.641	0.003
741.886	0.0034
742.13	0.0034
742.375	0.0047
742.62	0.0058
742.865	0.0042
743.109	0.0044
743.354	0.004
743.598	0.0041
743.843	0.0034
744.087	0.0036
744.331	0.0038
744.576	0.0034
744.82	0.0037
745.064	0.0029
745.308	0.0022
745.552	0.0025
745.796	0.0039
746.04	0.0025
746.284	0.0015
746.528	0
746.771	0.0017
747.015	0.0017
747.259	0.0022
747.502	0.0021
747.746	0.0031
747.989	0.0022
748.233	0.0032
748.476	0.0025
748.719	0.0029
748.963	0.0025
749.206	0.0019
749.449	0.0028
749.692	0.0014
749.935	0.0026
750.178	0.0022
750.421	0.0015
750.664	0.0023
750.906	0.0029
751.149	0.0016
751.392	0.0008
751.635	0.0005
751.877	-0.0007
752.12	-0.0001
752.362	0.0003
752.604	-0.0004
752.847	0.0003
753.089	0.0012
753.331	0.0004
753.573	0.0001
753.816	0.0012
754.058	0.0014
754.3	0.0016
754.542	0.002
754.783	0.0015
755.025	0.0013
755.267	0.0004
755.509	0.0001
755.75	0.0011
755.992	0.0022
756.234	0.0011
756.475	0.0001
756.716	-0
756.958	0.0009
757.199	0.0013
757.44	0.0028
757.682	0.0027
757.923	0.0017
758.164	0.001
758.405	0.0007
758.646	0.0013
758.887	0.0007
759.128	0.0006
759.369	-0.0004
759.609	-0.0002
759.85	0.0003
760.091	0.0008
760.331	0.0005
760.572	0.0003
760.812	-0.0007
761.053	-0.0011
761.293	-0.0007
761.533	-0.0006
761.774	-0.0014
762.014	-0.0009
762.254	-0.0007
762.494	-0.0016
762.734	-0.0017
762.974	-0.0015
763.214	-0.0015
763.454	-0.0015
763.694	-0.0008
763.933	-0.0012
764.173	-0
764.413	-0.0002
764.652	0.0004
764.892	-0.0002
765.131	0.0006
765.371	0.0003
765.61	0.0017
765.849	0.0017
766.089	0.0014
766.328	0.0022
766.567	0.002
766.806	0.0025
767.045	0.0023
767.284	0.0018
767.523	0.0025
767.762	0.0015
768.001	0.0013
768.239	0.0013
768.478	0.0009
768.717	0.0009
768.955	0.0014
769.194	-0.0001
769.432	0.0003
769.671	0
769.909	0.0001
770.148	0.0007
770.386	0.0003
770.624	0.0011
770.862	0.0014
771.1	0.0006
771.338	0.0002
771.576	0.0007
771.814	0.0005
772.052	-0.0004
772.29	0.0002
772.528	0.0013
772.765	0.0011
773.003	0.0021
773.24	0.0014
773.478	0.0016
773.716	0.0029
773.953	0.0032
774.19	0.004
774.428	0.0028
774.665	0.0031
774.902	0.0033
775.139	0.0013
775.376	0.0022
775.613	0.0011
775.85	0.0016
776.087	0.0009
776.324	0.0018
776.561	0.002
776.798	0.0036
777.034	0.0048
777.271	0.0048
777.508	0.0059
777.744	0.0046
777.981	0.0039
778.217	0.004
778.454	0.0037
778.69	0.0032
778.926	0.0034
779.162	0.0034
779.399	0.0028
779.635	0.0021
779.871	0.0019
780.107	0.0021
780.343	0.0021
780.579	0.0027
780.814	0.0018
781.05	0.0017
781.286	0.002
781.522	0.0016
781.757	0.0025
781.993	0.0021
782.228	0.002
782.464	0.0021
782.699	0.0008
782.934	0.0005
783.17	0.0006
783.405	0.0004
783.64	0.0011
783.875	0.0019
784.11	0.0022
784.345	0.0029
784.58	0.0028
784.815	0.0032
785.05	0.0029
785.285	0.0022
785.52	0.0014
785.754	0.0024
785.989	0.0014
786.223	-0.0001
786.458	-0
786.692	-0.0013
786.927	-0.0017
787.161	-0.0018
787.396	-0.0017
787.63	-0.0028
787.864	-0.0025
788.098	-0.0016
788.332	-0.0005
788.566	-0.0009
788.8	-0.0006
789.034	0.0001
789.268	-0.0005
789.502	-0.0001
789.736	0.0013
789.969	0.0016
790.203	0.0019
790.437	0.0012
790.67	0.0012
790.904	0.0012
791.137	-0.0009
791.37	-0.0011
791.604	-0.002
791.837	-0.0012
792.07	-0.0017
792.303	-0.0007
792.537	-0.0007
792.77	-0.0013
793.003	-0.0011
793.236	-0.0015
793.469	-0.0022
793.701	-0.002
793.934	-0.0016
794.167	-0.0005
794.4	-0.0007
794.632	-0.0006
794.865	-0.0016
795.097	-0.0004
795.33	0.0012
795.562	-0.0002
795.795	0
796.027	0.0005
796.259	0.0005
796.491	0.0003
796.724	-0.0004
796.956	0.0006
797.188	0.0011
797.42	0
797.652	-0.0003
797.883	-0.0003
798.115	-0.0008
798.347	-0.0019
798.579	-0.0031
798.81	-0.0045
799.042	-0.0034
799.274	-0.0045
799.505	-0.0036
799.737	-0.0053
799.968	-0.0039
800.199	-0.0033
800.431	-0.0033
800.662	-0.003
800.893	-0.003
801.124	-0.0026
801.355	-0.0015
801.586	-0.0011
801.817	-0.0014
802.048	-0.0013
802.279	-0.0014
802.51	0
802.741	-0.0011
802.971	-0.0004
803.202	-0.0012
803.433	-0.0007
803.663	-0.0013
803.894	-0.0003
804.124	-0.0009
804.354	-0.0009
804.585	-0.0012
804.815	-0.0007
805.045	-0.0006
805.275	-0.0016
805.506	0.0169
805.736	0.0007
805.966	-0.1635
806.196	0.0097
