Data from 03 0.2 mM BQDS 0.4 mM K2Cr2O7 1 M H2SO4 5 min_Absorbance_11-37-42-469.txt Node
Date: Wed Dec 08 11:37:42 EST 2021
User: kwabilab-user
Spectrometer: HDX00518
Trigger mode: 0
Integration Time (sec): 5.000000E-2
Scans to average: 50
Nonlinearity correction enabled: false
Boxcar width: 0
Storing dark spectrum: false
XAxis mode: Wavelengths
Number of Pixels in Spectrum: 2068
>>>>>Begin Spectral Data<<<<<
195.27	0.4309
195.642	0.3108
196.014	0.1341
196.386	0.2788
196.758	0.0744
197.129	0.0535
197.501	0.0728
197.872	0.1148
198.244	0.1265
198.615	0.1283
198.986	0.1166
199.357	0.116
199.728	0.132
200.099	0.1136
200.47	0.1292
200.841	0.1216
201.212	0.115
201.582	0.1082
201.953	0.1254
202.323	0.1208
202.694	0.1101
203.064	0.1283
203.434	0.1002
203.804	0.1478
204.174	0.1236
204.544	0.1268
204.914	0.1247
205.284	0.1273
205.653	0.1429
206.023	0.1325
206.393	0.1235
206.762	0.1191
207.131	0.1246
207.501	0.1328
207.87	0.1397
208.239	0.1329
208.608	0.1183
208.977	0.1394
209.346	0.15
209.715	0.1372
210.083	0.1346
210.452	0.1431
210.82	0.1574
211.189	0.1543
211.557	0.1454
211.925	0.1726
212.294	0.1627
212.662	0.1692
213.03	0.1712
213.398	0.1625
213.766	0.1837
214.133	0.2078
214.501	0.2185
214.869	0.2017
215.236	0.2413
215.604	0.2354
215.971	0.2525
216.338	0.2719
216.705	0.2835
217.072	0.3035
217.439	0.3152
217.806	0.3723
218.173	0.3884
218.54	0.4235
218.907	0.4541
219.273	0.4905
219.64	0.524
220.006	0.5564
220.373	0.5962
220.739	0.6355
221.105	0.6797
221.471	0.6901
221.837	0.7357
222.203	0.7818
222.569	0.8058
222.935	0.835
223.3	0.8528
223.666	0.891
224.031	0.9144
224.397	0.9274
224.762	0.9383
225.127	0.962
225.493	0.9782
225.858	0.9901
226.223	1.0002
226.588	1.0151
226.952	1.003
227.317	1.0177
227.682	1.0075
228.046	0.9994
228.411	1.0098
228.775	1.0056
229.14	0.9979
229.504	0.9936
229.868	0.988
230.232	0.9853
230.596	0.9726
230.96	0.97
231.324	0.9623
231.688	0.9489
232.052	0.9433
232.415	0.9294
232.779	0.9276
233.142	0.9146
233.505	0.9092
233.869	0.8984
234.232	0.8884
234.595	0.8782
234.958	0.8712
235.321	0.8618
235.684	0.8495
236.047	0.8415
236.409	0.8319
236.772	0.8228
237.134	0.8162
237.497	0.8034
237.859	0.7987
238.222	0.7882
238.584	0.7813
238.946	0.7741
239.308	0.7651
239.67	0.7554
240.032	0.7492
240.393	0.7424
240.755	0.7329
241.117	0.7278
241.478	0.7224
241.84	0.7134
242.201	0.706
242.562	0.6985
242.924	0.6962
243.285	0.6886
243.646	0.6837
244.007	0.6789
244.368	0.675
244.728	0.6679
245.089	0.6619
245.45	0.6602
245.81	0.6575
246.171	0.648
246.531	0.6441
246.891	0.6418
247.252	0.6353
247.612	0.634
247.972	0.6303
248.332	0.6281
248.692	0.6239
249.051	0.6218
249.411	0.6162
249.771	0.6128
250.13	0.6106
250.49	0.6099
250.849	0.6073
251.208	0.6069
251.568	0.6021
251.927	0.5986
252.286	0.5992
252.645	0.5948
253.004	0.5919
253.363	0.5895
253.721	0.5873
254.08	0.5867
254.439	0.5847
254.797	0.5834
255.155	0.5813
255.514	0.578
255.872	0.5793
256.23	0.576
256.588	0.5742
256.946	0.5718
257.304	0.5721
257.662	0.5698
258.02	0.57
258.377	0.5671
258.735	0.5656
259.093	0.564
259.45	0.5632
259.807	0.5613
260.165	0.558
260.522	0.5576
260.879	0.5543
261.236	0.5546
261.593	0.5514
261.95	0.5497
262.306	0.55
262.663	0.546
263.02	0.5452
263.376	0.544
263.733	0.5399
264.089	0.5389
264.445	0.5378
264.802	0.5355
265.158	0.5331
265.514	0.5324
265.87	0.5295
266.226	0.5275
266.581	0.5251
266.937	0.5218
267.293	0.521
267.648	0.5194
268.004	0.5152
268.359	0.5133
268.714	0.5095
269.07	0.5093
269.425	0.5058
269.78	0.5048
270.135	0.5003
270.49	0.4989
270.844	0.4959
271.199	0.4937
271.554	0.49
271.908	0.4877
272.263	0.4869
272.617	0.4843
272.972	0.4797
273.326	0.4768
273.68	0.475
274.034	0.471
274.388	0.4676
274.742	0.4644
275.096	0.4618
275.45	0.4593
275.803	0.4548
276.157	0.4525
276.51	0.4476
276.864	0.4459
277.217	0.4429
277.571	0.4403
277.924	0.4346
278.277	0.4324
278.63	0.4292
278.983	0.4256
279.336	0.4217
279.688	0.4181
280.041	0.4142
280.394	0.4093
280.746	0.4062
281.099	0.404
281.451	0.3989
281.803	0.395
282.156	0.3921
282.508	0.3893
282.86	0.3851
283.212	0.3807
283.564	0.3769
283.916	0.3733
284.267	0.3691
284.619	0.3667
284.971	0.3623
285.322	0.3587
285.673	0.3548
286.025	0.3522
286.376	0.3471
286.727	0.3425
287.078	0.3393
287.429	0.3382
287.78	0.3325
288.131	0.3277
288.482	0.3243
288.833	0.3215
289.183	0.3173
289.534	0.3133
289.884	0.3089
290.235	0.3059
290.585	0.3015
290.935	0.2988
291.285	0.2943
291.635	0.2912
291.985	0.2872
292.335	0.2831
292.685	0.2801
293.035	0.2768
293.384	0.2728
293.734	0.2694
294.083	0.2649
294.433	0.2613
294.782	0.2585
295.131	0.2542
295.48	0.2516
295.829	0.2492
296.179	0.2438
296.527	0.2412
296.876	0.2385
297.225	0.2357
297.574	0.2314
297.922	0.2283
298.271	0.2249
298.619	0.2221
298.968	0.2199
299.316	0.2164
299.664	0.2132
300.012	0.2113
300.36	0.2073
300.708	0.2053
301.056	0.2027
301.404	0.2001
301.752	0.1975
302.099	0.1958
302.447	0.1934
302.794	0.1904
303.142	0.1881
303.489	0.1863
303.836	0.184
304.183	0.1827
304.531	0.1811
304.878	0.179
305.224	0.1766
305.571	0.1753
305.918	0.1739
306.265	0.1716
306.611	0.1708
306.958	0.1697
307.304	0.1681
307.651	0.167
307.997	0.1653
308.343	0.1642
308.689	0.1629
309.035	0.1626
309.381	0.1615
309.727	0.1596
310.073	0.1597
310.419	0.159
310.764	0.1582
311.11	0.1582
311.455	0.1568
311.801	0.1565
312.146	0.1559
312.491	0.1554
312.837	0.1554
313.182	0.1552
313.527	0.1549
313.872	0.1543
314.216	0.1542
314.561	0.1543
314.906	0.1538
315.251	0.1543
315.595	0.1538
315.94	0.1538
316.284	0.1541
316.628	0.1542
316.972	0.1539
317.317	0.1542
317.661	0.1552
318.005	0.155
318.348	0.1554
318.692	0.1557
319.036	0.1557
319.38	0.1564
319.723	0.157
320.067	0.1573
320.41	0.1579
320.754	0.1589
321.097	0.1597
321.44	0.1602
321.783	0.1607
322.126	0.1615
322.469	0.1629
322.812	0.1632
323.155	0.1642
323.498	0.165
323.84	0.1662
324.183	0.1672
324.525	0.1682
324.868	0.1693
325.21	0.1706
325.552	0.1717
325.894	0.1718
326.236	0.1727
326.578	0.1745
326.92	0.1752
327.262	0.1759
327.604	0.1775
327.946	0.1785
328.287	0.1796
328.629	0.1807
328.97	0.1813
329.312	0.183
329.653	0.1842
329.994	0.1855
330.335	0.1871
330.676	0.1875
331.017	0.1888
331.358	0.1906
331.699	0.1919
332.04	0.1932
332.38	0.1938
332.721	0.1955
333.061	0.1959
333.402	0.1981
333.742	0.1992
334.083	0.2008
334.423	0.2012
334.763	0.2017
335.103	0.2036
335.443	0.2042
335.783	0.2051
336.123	0.2051
336.462	0.2073
336.802	0.2083
337.141	0.209
337.481	0.21
337.82	0.2106
338.16	0.2114
338.499	0.2127
338.838	0.2136
339.177	0.2156
339.516	0.2157
339.855	0.2171
340.194	0.2175
340.533	0.2189
340.872	0.2191
341.21	0.2202
341.549	0.2211
341.887	0.222
342.226	0.2218
342.564	0.2222
342.902	0.2228
343.24	0.2226
343.578	0.2223
343.916	0.2232
344.254	0.224
344.592	0.2238
344.93	0.2241
345.268	0.2237
345.605	0.2243
345.943	0.225
346.28	0.2243
346.618	0.2248
346.955	0.2245
347.292	0.225
347.629	0.2256
347.966	0.2251
348.303	0.2252
348.64	0.2254
348.977	0.2247
349.314	0.2256
349.65	0.2261
349.987	0.2252
350.324	0.2246
350.66	0.2245
350.996	0.2247
351.333	0.2232
351.669	0.2224
352.005	0.2227
352.341	0.2215
352.677	0.2209
353.013	0.2197
353.349	0.2192
353.685	0.2174
354.02	0.2171
354.356	0.216
354.691	0.2151
355.027	0.2148
355.362	0.2133
355.697	0.2128
356.033	0.2115
356.368	0.2105
356.703	0.2092
357.038	0.2094
357.373	0.2081
357.707	0.2079
358.042	0.2068
358.377	0.2051
358.711	0.2048
359.046	0.2033
359.38	0.2018
359.715	0.2022
360.049	0.201
360.383	0.1995
360.717	0.198
361.051	0.1965
361.385	0.1959
361.719	0.1936
362.053	0.1928
362.387	0.1901
362.72	0.1895
363.054	0.1869
363.387	0.1856
363.721	0.1838
364.054	0.1828
364.387	0.1799
364.721	0.1789
365.054	0.1777
365.387	0.1758
365.72	0.1742
366.053	0.1728
366.385	0.1705
366.718	0.1704
367.051	0.1688
367.383	0.1668
367.716	0.1662
368.048	0.1651
368.381	0.1634
368.713	0.1625
369.045	0.1612
369.377	0.1601
369.709	0.1583
370.041	0.1577
370.373	0.1558
370.705	0.1547
371.037	0.1525
371.368	0.1511
371.7	0.1498
372.031	0.1483
372.363	0.1465
372.694	0.1454
373.025	0.1428
373.356	0.141
373.688	0.1389
374.019	0.1368
374.35	0.1355
374.68	0.1332
375.011	0.1311
375.342	0.1297
375.673	0.128
376.003	0.1261
376.334	0.1246
376.664	0.1232
376.995	0.1221
377.325	0.1203
377.655	0.1197
377.985	0.1173
378.315	0.1165
378.645	0.1144
378.975	0.1137
379.305	0.1132
379.635	0.1117
379.964	0.1102
380.294	0.1091
380.623	0.1077
380.953	0.1068
381.282	0.1055
381.611	0.1039
381.941	0.1028
382.27	0.1009
382.599	0.0998
382.928	0.0984
383.257	0.0978
383.585	0.0969
383.914	0.0951
384.243	0.0936
384.571	0.0922
384.9	0.0901
385.228	0.0885
385.557	0.0874
385.885	0.086
386.213	0.0848
386.541	0.0829
386.869	0.0811
387.197	0.08
387.525	0.0784
387.853	0.077
388.181	0.0766
388.508	0.0757
388.836	0.0741
389.164	0.073
389.491	0.0716
389.818	0.0706
390.146	0.0699
390.473	0.0682
390.8	0.0676
391.127	0.066
391.454	0.0657
391.781	0.065
392.108	0.0633
392.435	0.0624
392.761	0.0612
393.088	0.0612
393.415	0.0603
393.741	0.06
394.067	0.0588
394.394	0.0586
394.72	0.0575
395.046	0.0563
395.372	0.0553
395.698	0.0541
396.024	0.054
396.35	0.0535
396.676	0.0535
397.001	0.0526
397.327	0.0511
397.653	0.0497
397.978	0.0494
398.303	0.0482
398.629	0.0481
398.954	0.0473
399.279	0.0468
399.604	0.0465
399.929	0.045
400.254	0.0451
400.579	0.0444
400.904	0.0439
401.229	0.0433
401.553	0.0419
401.878	0.0418
402.202	0.0412
402.527	0.0412
402.851	0.0414
403.175	0.0404
403.5	0.0405
403.824	0.0404
404.148	0.0399
404.472	0.0396
404.796	0.0381
405.119	0.0385
405.443	0.038
405.767	0.0375
406.09	0.0375
406.414	0.0379
406.737	0.0373
407.061	0.0374
407.384	0.0375
407.707	0.0369
408.03	0.0371
408.353	0.0371
408.676	0.0368
408.999	0.0364
409.322	0.0361
409.645	0.0368
409.968	0.0367
410.29	0.0364
410.613	0.0358
410.935	0.036
411.258	0.0359
411.58	0.0357
411.902	0.0362
412.224	0.0362
412.546	0.0357
412.868	0.0352
413.19	0.0358
413.512	0.0354
413.834	0.0358
414.156	0.0357
414.477	0.0359
414.799	0.0361
415.121	0.0358
415.442	0.0361
415.763	0.0363
416.085	0.0358
416.406	0.036
416.727	0.0365
417.048	0.0358
417.369	0.0357
417.69	0.0357
418.011	0.0362
418.331	0.0358
418.652	0.0361
418.973	0.0369
419.293	0.036
419.614	0.0363
419.934	0.0362
420.254	0.0363
420.574	0.036
420.895	0.0362
421.215	0.0354
421.535	0.0357
421.855	0.0359
422.174	0.0357
422.494	0.036
422.814	0.037
423.134	0.0366
423.453	0.037
423.773	0.0368
424.092	0.0363
424.411	0.0366
424.731	0.037
425.05	0.0367
425.369	0.0369
425.688	0.0371
426.007	0.0371
426.326	0.0374
426.644	0.0386
426.963	0.0377
427.282	0.0376
427.6	0.0372
427.919	0.038
428.237	0.0379
428.556	0.0382
428.874	0.038
429.192	0.0371
429.51	0.0375
429.828	0.038
430.146	0.0382
430.464	0.0374
430.782	0.0382
431.1	0.0377
431.418	0.0376
431.735	0.0375
432.053	0.0387
432.37	0.0383
432.688	0.0379
433.005	0.0383
433.322	0.0382
433.639	0.0384
433.957	0.0381
434.274	0.0389
434.591	0.0381
434.907	0.0391
435.224	0.0381
435.541	0.0384
435.858	0.0391
436.174	0.0388
436.491	0.0386
436.807	0.0387
437.124	0.0376
437.44	0.038
437.756	0.0382
438.072	0.0378
438.388	0.0386
438.704	0.038
439.02	0.0389
439.336	0.0383
439.652	0.0387
439.968	0.0384
440.283	0.0382
440.599	0.0387
440.914	0.0384
441.23	0.0388
441.545	0.0385
441.86	0.0377
442.175	0.0379
442.491	0.0381
442.806	0.0378
443.121	0.0384
443.435	0.0376
443.75	0.038
444.065	0.0384
444.38	0.0379
444.694	0.0384
445.009	0.0384
445.323	0.0378
445.638	0.0379
445.952	0.038
446.266	0.0383
446.58	0.038
446.894	0.038
447.208	0.0384
447.522	0.0379
447.836	0.0364
448.15	0.0378
448.464	0.0366
448.777	0.0373
449.091	0.0366
449.404	0.0375
449.718	0.0378
450.031	0.0377
450.345	0.0368
450.658	0.0369
450.971	0.0368
451.284	0.0364
451.597	0.0369
451.91	0.0368
452.223	0.0363
452.535	0.0372
452.848	0.0363
453.161	0.0363
453.473	0.0366
453.786	0.0362
454.098	0.0358
454.411	0.0352
454.723	0.0354
455.035	0.0358
455.347	0.036
455.659	0.0362
455.971	0.0363
456.283	0.0364
456.595	0.0355
456.907	0.0354
457.218	0.0351
457.53	0.0359
457.841	0.034
458.153	0.0349
458.464	0.0345
458.776	0.0334
459.087	0.0343
459.398	0.0343
459.709	0.0342
460.02	0.0333
460.331	0.0333
460.642	0.0329
460.953	0.0333
461.263	0.0337
461.574	0.033
461.885	0.0329
462.195	0.0334
462.506	0.033
462.816	0.0326
463.126	0.0316
463.437	0.0327
463.747	0.0316
464.057	0.0323
464.367	0.0318
464.677	0.031
464.987	0.0317
465.296	0.031
465.606	0.0303
465.916	0.0297
466.225	0.0297
466.535	0.0297
466.844	0.0296
467.154	0.0297
467.463	0.0299
467.772	0.0302
468.081	0.0292
468.39	0.0291
468.699	0.0292
469.008	0.0294
469.317	0.0291
469.626	0.0285
469.935	0.0293
470.243	0.0294
470.552	0.0284
470.86	0.0287
471.169	0.028
471.477	0.0282
471.785	0.0283
472.093	0.0285
472.402	0.0271
472.71	0.0269
473.018	0.0271
473.326	0.0265
473.633	0.027
473.941	0.0269
474.249	0.0262
474.556	0.0258
474.864	0.0253
475.171	0.0252
475.479	0.0262
475.786	0.026
476.094	0.0254
476.401	0.0254
476.708	0.0243
477.015	0.0256
477.322	0.0244
477.629	0.0248
477.936	0.0239
478.242	0.0241
478.549	0.0237
478.856	0.023
479.162	0.0242
479.469	0.0235
479.775	0.0242
480.081	0.0221
480.388	0.0234
480.694	0.0226
481	0.0231
481.306	0.0226
481.612	0.0225
481.918	0.022
482.224	0.0221
482.53	0.0218
482.835	0.0214
483.141	0.0206
483.446	0.0204
483.752	0.0207
484.057	0.0196
484.363	0.0198
484.668	0.02
484.973	0.0191
485.278	0.0196
485.583	0.0186
485.888	0.0187
486.193	0.0187
486.498	0.0184
486.803	0.0184
487.107	0.0185
487.412	0.0177
487.717	0.0176
488.021	0.0176
488.325	0.0175
488.63	0.0174
488.934	0.0175
489.238	0.0184
489.542	0.0177
489.846	0.0159
490.15	0.0177
490.454	0.017
490.758	0.0167
491.062	0.0159
491.366	0.0154
491.669	0.0165
491.973	0.0164
492.276	0.0155
492.58	0.0141
492.883	0.0153
493.186	0.0161
493.489	0.0155
493.792	0.0158
494.096	0.0152
494.399	0.0154
494.701	0.0154
495.004	0.0144
495.307	0.0137
495.61	0.0138
495.912	0.014
496.215	0.0133
496.517	0.0135
496.82	0.0125
497.122	0.0131
497.424	0.0128
497.727	0.0127
498.029	0.013
498.331	0.0137
498.633	0.0127
498.935	0.0123
499.237	0.0131
499.538	0.0126
499.84	0.0124
500.142	0.013
500.443	0.0123
500.745	0.0114
501.046	0.0125
501.348	0.0109
501.649	0.0114
501.95	0.0105
502.251	0.0107
502.552	0.0101
502.853	0.0103
503.154	0.0108
503.455	0.0091
503.756	0.0095
504.057	0.0101
504.357	0.0095
504.658	0.0088
504.958	0.0096
505.259	0.0106
505.559	0.0108
505.859	0.0098
506.16	0.0093
506.46	0.0094
506.76	0.0101
507.06	0.0095
507.36	0.0095
507.66	0.0101
507.96	0.0087
508.259	0.0091
508.559	0.0081
508.859	0.0088
509.158	0.0077
509.457	0.0089
509.757	0.009
510.056	0.0083
510.355	0.008
510.655	0.0063
510.954	0.0072
511.253	0.0081
511.552	0.0082
511.851	0.0074
512.149	0.0073
512.448	0.0062
512.747	0.0072
513.045	0.0053
513.344	0.0068
513.642	0.0073
513.941	0.0067
514.239	0.0067
514.537	0.0066
514.836	0.0069
515.134	0.0066
515.432	0.0065
515.73	0.007
516.028	0.0063
516.326	0.0065
516.623	0.0061
516.921	0.0063
517.219	0.0069
517.516	0.0069
517.814	0.0061
518.111	0.0067
518.409	0.0078
518.706	0.0068
519.003	0.0068
519.3	0.0052
519.597	0.0056
519.894	0.0061
520.191	0.0066
520.488	0.0071
520.785	0.0049
521.082	0.0058
521.378	0.0065
521.675	0.0053
521.971	0.0056
522.268	0.0052
522.564	0.0051
522.861	0.0055
523.157	0.0043
523.453	0.0054
523.749	0.0059
524.045	0.0058
524.341	0.0056
524.637	0.0042
524.933	0.0039
525.229	0.0048
525.524	0.005
525.82	0.0054
526.115	0.0048
526.411	0.0048
526.706	0.0049
527.002	0.005
527.297	0.003
527.592	0.0057
527.887	0.0059
528.182	0.005
528.477	0.0052
528.772	0.0047
529.067	0.0048
529.362	0.0051
529.657	0.0053
529.951	0.004
530.246	0.0038
530.54	0.0028
530.835	0.0032
531.129	0.0032
531.423	0.0047
531.718	0.0044
532.012	0.0041
532.306	0.0033
532.6	0.0036
532.894	0.0025
533.188	0.0045
533.482	0.0032
533.775	0.0041
534.069	0.0032
534.363	0.003
534.656	0.0024
534.95	0.0021
535.243	0.0033
535.536	0.0035
535.83	0.004
536.123	0.0028
536.416	0.003
536.709	0.0029
537.002	0.0046
537.295	0.0033
537.588	0.0031
537.881	0.0023
538.173	0.0031
538.466	0.0025
538.759	0.0022
539.051	0.0022
539.344	0.003
539.636	0.0029
539.928	0.0019
540.22	0.0026
540.513	0.0028
540.805	0.003
541.097	0.0038
541.389	0.0024
541.681	0.0028
541.972	0.0031
542.264	0.0024
542.556	0.0022
542.847	0.0021
543.139	0.0024
543.431	0.0036
543.722	0.0037
544.013	0.0038
544.305	0.0043
544.596	0.0041
544.887	0.003
545.178	0.0025
545.469	0.003
545.76	0.0023
546.051	0.0023
546.342	0.0034
546.632	0.0018
546.923	0.0026
547.214	0.0038
547.504	0.0029
547.795	0.0037
548.085	0.0031
548.375	0.0023
548.666	0.0032
548.956	0.0017
549.246	0.0028
549.536	0.0026
549.826	0.0033
550.116	0.0031
550.406	0.002
550.695	0.0041
550.985	0.0039
551.275	0.0041
551.564	0.004
551.854	0.004
552.143	0.0039
552.433	0.0032
552.722	0.0034
553.011	0.0024
553.3	0.0035
553.589	0.0031
553.879	0.0034
554.167	0.0042
554.456	0.0032
554.745	0.0022
555.034	0.0027
555.323	0.0014
555.611	0.0026
555.9	0.0032
556.188	0.0036
556.477	0.0023
556.765	0.002
557.053	0.002
557.342	0.0024
557.63	0.0034
557.918	0.003
558.206	0.0034
558.494	0.0035
558.782	0.0026
559.069	0.0027
559.357	0.003
559.645	0.0024
559.932	0.0031
560.22	0.0038
560.507	0.0024
560.795	0.0026
561.082	0.0029
561.37	0.0031
561.657	0.0034
561.944	0.0036
562.231	0.003
562.518	0.0015
562.805	0.0037
563.092	0.0042
563.379	0.0041
563.665	0.0033
563.952	0.0037
564.239	0.0036
564.525	0.0041
564.811	0.0043
565.098	0.0042
565.384	0.0048
565.67	0.0037
565.957	0.0033
566.243	0.0024
566.529	0.0043
566.815	0.0054
567.101	0.0028
567.387	0.0023
567.672	0.003
567.958	0.0033
568.244	0.0035
568.529	0.0025
568.815	0.0028
569.1	0.0041
569.386	0.003
569.671	0.0025
569.956	0.0027
570.242	0.0023
570.527	0.003
570.812	0.0027
571.097	0.0032
571.382	0.0031
571.666	0.0024
571.951	0.003
572.236	0.0032
572.521	0.0025
572.805	0.0037
573.09	0.0025
573.374	0.0032
573.659	0.0022
573.943	0.0023
574.227	0.0026
574.511	0.0026
574.795	0.0025
575.079	0.002
575.363	0.0026
575.647	0.0029
575.931	0.0029
576.215	0.0027
576.499	0.0018
576.782	0.0023
577.066	0.0023
577.349	0.0027
577.633	0.0042
577.916	0.0038
578.2	0.0036
578.483	0.0027
578.766	0.0023
579.049	0.0028
579.332	0.0027
579.615	0.0032
579.898	0.0033
580.181	0.0027
580.464	0.0028
580.746	0.0022
581.029	0.0025
581.312	0.0025
581.594	0.0026
581.877	0.0022
582.159	0.003
582.441	0.0031
582.724	0.0024
583.006	0.0013
583.288	0.0013
583.57	0.0012
583.852	0.0016
584.134	0.0018
584.416	0.0028
584.697	0.0025
584.979	0.0024
585.261	0.0029
585.542	0.0023
585.824	0.0024
586.105	0.0022
586.387	0.0021
586.668	0.0028
586.949	0.0026
587.231	0.0018
587.512	0.0028
587.793	0.0025
588.074	0.0025
588.355	0.0032
588.636	0.0038
588.916	0.003
589.197	0.0027
589.478	0.004
589.758	0.0029
590.039	0.0032
590.319	0.0027
590.6	0.003
590.88	0.0028
591.16	0.0028
591.441	0.0034
591.721	0.0028
592.001	0.0031
592.281	0.0026
592.561	0.0033
592.841	0.0036
593.12	0.0023
593.4	0.0022
593.68	0.0027
593.959	0.0024
594.239	0.0036
594.518	0.0026
594.798	0.0029
595.077	0.0036
595.356	0.0025
595.636	0.0022
595.915	0.0032
596.194	0.003
596.473	0.0036
596.752	0.0022
597.031	0.003
597.31	0.0019
597.588	0.0025
597.867	0.0018
598.146	0.0017
598.424	0.002
598.703	0.0021
598.981	0.0021
599.259	0.0024
599.538	0.0023
599.816	0.0029
600.094	0.0027
600.372	0.0021
600.65	0.0029
600.928	0.003
601.206	0.0033
601.484	0.0028
601.762	0.0034
602.04	0.0024
602.317	0.0033
602.595	0.0026
602.872	0.0029
603.15	0.0028
603.427	0.0024
603.704	0.0014
603.982	0.0021
604.259	0.002
604.536	0.0026
604.813	0.0015
605.09	0.0021
605.367	0.0017
605.644	0.0023
605.921	0.002
606.197	0.0027
606.474	0.0016
606.751	0.0021
607.027	0.0025
607.304	0.0016
607.58	0.0015
607.856	0.0015
608.133	0.0032
608.409	0.003
608.685	0.0029
608.961	0.0029
609.237	0.003
609.513	0.0028
609.789	0.0031
610.065	0.0019
610.341	0.0027
610.616	0.002
610.892	0.003
611.167	0.0028
611.443	0.0026
611.718	0.0017
611.994	0.0015
612.269	0.0022
612.544	0.0017
612.819	0.002
613.095	0.0022
613.37	0.002
613.645	0.0022
613.919	0.0016
614.194	0.0023
614.469	0.0014
614.744	0.0011
615.019	0.0014
615.293	0.0004
615.568	0.0011
615.842	0.0008
616.116	0.0008
616.391	0.001
616.665	0.0026
616.939	0.0016
617.213	0.0019
617.488	0.0016
617.762	0.0019
618.035	0.0024
618.309	0.0018
618.583	0.0019
618.857	0.0028
619.131	0.0024
619.404	0.0015
619.678	0.0012
619.951	0.0018
620.225	0.0014
620.498	0.001
620.771	0.0028
621.045	0.0031
621.318	0.0028
621.591	0.0031
621.864	0.0012
622.137	0.0008
622.41	0.0019
622.683	0.0011
622.956	0.0019
623.228	0.0028
623.501	0.0026
623.774	0.0031
624.046	0.0026
624.319	0.0024
624.591	0.0015
624.863	0.0024
625.136	0.0019
625.408	0.0019
625.68	0.0032
625.952	0.0029
626.224	0.0023
626.496	0.0024
626.768	0.002
627.04	0.0022
627.311	0.0022
627.583	0.0021
627.855	0.0019
628.126	0.0022
628.398	0.0038
628.669	0.0036
628.941	0.0024
629.212	0.0019
629.483	0.0022
629.755	0.0005
630.026	0.0005
630.297	0.0009
630.568	0.0005
630.839	0.0011
631.11	0.0001
631.38	-0.0001
631.651	0.0006
631.922	-0.0005
632.192	-0.0002
632.463	-0.0004
632.733	0.0009
633.004	0.0007
633.274	-0.0001
633.545	0.0015
633.815	0.0028
634.085	0.0037
634.355	0.0027
634.625	0.0032
634.895	0.0015
635.165	0.0008
635.435	0.0011
635.705	0.0024
635.974	0.0005
636.244	0.0017
636.514	0.0019
636.783	0.0018
637.053	0.0027
637.322	0.0013
637.591	0.0025
637.861	0.0024
638.13	0.0028
638.399	0.0019
638.668	0.0028
638.937	0.0014
639.206	0.0016
639.475	0.0021
639.744	0.0021
640.013	0.0014
640.281	0.0039
640.55	0.0036
640.819	0.0024
641.087	0.0027
641.356	0.0023
641.624	0.003
641.892	0.0027
642.161	0.0024
642.429	0.0036
642.697	0.0031
642.965	0.0039
643.233	0.0036
643.501	0.003
643.769	0.0019
644.037	0.0024
644.305	0.0009
644.572	0.0016
644.84	0.001
645.108	0.0019
645.375	0.0002
645.643	0.0013
645.91	0.0008
646.177	0.0024
646.445	0.004
646.712	0.0039
646.979	0.0042
647.246	0.004
647.513	0.004
647.78	0.0034
648.047	0.004
648.314	0.0039
648.58	0.0031
648.847	0.0022
649.114	0.0005
649.38	0.0015
649.647	0.0013
649.913	0.0017
650.18	0.0019
650.446	0.0018
650.712	0.0023
650.978	0.0033
651.245	0.0033
651.511	0.0031
651.777	0.0021
652.043	0.0026
652.309	0.0022
652.574	0.0043
652.84	0.0024
653.106	0.0018
653.371	0.001
653.637	0.0018
653.903	0.0021
654.168	0.0022
654.433	0.0033
654.699	0.0031
654.964	0.0037
655.229	0.0036
655.494	0.003
655.759	0.0019
656.024	0.0005
656.289	-0
656.554	-0.0029
656.819	-0.0012
657.084	0.0021
657.349	0.0038
657.613	0.0042
657.878	0.0033
658.142	0.0038
658.407	0.0041
658.671	0.0028
658.936	0.0022
659.2	0.0009
659.464	0.0015
659.728	0.0015
659.992	0.003
660.256	0.002
660.52	0.0011
660.784	0.0003
661.048	0.001
661.312	-0.0011
661.575	0.0002
661.839	-0.0007
662.103	-0.0007
662.366	-0.0005
662.63	0.001
662.893	0.001
663.156	0.0004
663.42	0.0005
663.683	0.0012
663.946	0.0018
664.209	0.0036
664.472	0.0035
664.735	0.0023
664.998	0.0019
665.261	0.0014
665.524	0.001
665.786	0.001
666.049	0.0014
666.312	0.0012
666.574	0.0014
666.837	0.0013
667.099	-0.0001
667.361	-0.0005
667.624	0
667.886	0.0001
668.148	0.0004
668.41	0.0016
668.672	0.0005
668.934	0.0006
669.196	0.0011
669.458	0.0023
669.72	0.0022
669.982	0.0024
670.243	0.003
670.505	0.0024
670.766	0.0021
671.028	0.002
671.289	0.0029
671.551	0.0016
671.812	0.0004
672.073	0.0007
672.334	0.0007
672.596	0.0009
672.857	0.0005
673.118	0.0012
673.379	-0.0005
673.639	-0.0004
673.9	0.0008
674.161	-0.0009
674.422	-0.0021
674.682	-0.001
674.943	-0.0015
675.203	-0.0003
675.464	-0.0002
675.724	0.0006
675.985	0.0016
676.245	0.0025
676.505	0.0031
676.765	0.0024
677.025	0.0021
677.285	0.0024
677.545	0.0037
677.805	0.0038
678.065	0.0031
678.325	0.0031
678.585	0.0029
678.844	0.0027
679.104	0.0026
679.363	0.0025
679.623	0.0036
679.882	0.0034
680.142	0.0037
680.401	0.0039
680.66	0.0046
680.919	0.0049
681.178	0.005
681.437	0.0046
681.696	0.0034
681.955	0.0035
682.214	0.0047
682.473	0.0049
682.732	0.0034
682.99	0.0026
683.249	0.0034
683.508	0.0039
683.766	0.0034
684.024	0.0028
684.283	0.003
684.541	0.003
684.799	0.0034
685.058	0.0023
685.316	0.0031
685.574	0.0035
685.832	0.0027
686.09	0.0039
686.348	0.0042
686.606	0.0034
686.863	0.0043
687.121	0.0048
687.379	0.0048
687.636	0.0037
687.894	0.0038
688.151	0.0048
688.409	0.0048
688.666	0.004
688.923	0.0046
689.181	0.0042
689.438	0.0028
689.695	0.003
689.952	0.0017
690.209	0.0022
690.466	0.0021
690.723	0.0034
690.979	0.0032
691.236	0.0027
691.493	0.0019
691.75	0.0023
692.006	0.0038
692.263	0.0035
692.519	0.0032
692.775	0.0022
693.032	0.0012
693.288	0.0024
693.544	0.003
693.8	0.0024
694.056	0.0028
694.313	0.0029
694.568	0.0024
694.824	0.0032
695.08	0.0043
695.336	0.004
695.592	0.0031
695.847	0.0036
696.103	0.0036
696.359	0.0038
696.614	0.0041
696.869	0.0031
697.125	0.0017
697.38	0.0003
697.635	0.0009
697.891	0.001
698.146	0.0014
698.401	0.003
698.656	0.0016
698.911	0.003
699.166	0.0018
699.42	0.0017
699.675	0.0019
699.93	0.0003
700.185	0.0021
700.439	0.0023
700.694	0.0017
700.948	0.0024
701.203	0.0024
701.457	0.0017
701.711	0.0019
701.965	0.0012
702.22	0.0007
702.474	0.0005
702.728	-0.0005
702.982	-0
703.236	-0.0005
703.49	0.0003
703.743	0.0001
703.997	0.0008
704.251	0.0012
704.504	0.0018
704.758	0.0006
705.012	0.0014
705.265	0.0011
705.518	0.0017
705.772	0.0002
706.025	-0.0001
706.278	0.0001
706.531	-0.0003
706.785	-0.0011
707.038	0.0002
707.291	-0.001
707.543	0.0004
707.796	-0.0001
708.049	-0.0005
708.302	-0.0012
708.555	-0.0003
708.807	0.0002
709.06	-0.0005
709.312	-0.0023
709.565	-0.002
709.817	-0.002
710.069	-0.001
710.322	-0.0014
710.574	-0.0005
710.826	-0.0003
711.078	0.0001
711.33	0.0003
711.582	-0.0001
711.834	0.0015
712.086	0.0022
712.338	0.0026
712.59	0.0022
712.841	0.0024
713.093	0.0011
713.344	0.0017
713.596	0.0019
713.847	0.002
714.099	0.0026
714.35	0.0025
714.601	0.0032
714.853	0.0035
715.104	0.0036
715.355	0.0025
715.606	0.0025
715.857	0.0025
716.108	0.0037
716.359	0.0026
716.609	0.0035
716.86	0.002
717.111	0.0012
717.361	0.0005
717.612	0.0008
717.863	0.0001
718.113	0.001
718.363	0.0008
718.614	0.0008
718.864	0.0018
719.114	0.0018
719.364	0.0012
719.614	0.0006
719.865	-0.0008
720.114	0.0011
720.364	0.0009
720.614	0.0017
720.864	0.0031
721.114	0.0027
721.364	0.0036
721.613	0.0037
721.863	0.0043
722.112	0.0033
722.362	0.0041
722.611	0.0035
722.86	0.0026
723.11	0.0014
723.359	0.0016
723.608	0.0035
723.857	0.0037
724.106	0.0056
724.355	0.0053
724.604	0.0062
724.853	0.005
725.102	0.0042
725.351	0.003
725.599	0.0032
725.848	0.0027
726.097	0.0031
726.345	0.0028
726.594	0.0026
726.842	0.002
727.09	0.003
727.339	0.0021
727.587	0.0022
727.835	0.0013
728.083	0.0003
728.331	-0.0006
728.579	-0.0009
728.827	-0.0001
729.075	0.0009
729.323	0.0016
729.571	0.0016
729.818	0.0023
730.066	0.003
730.314	0.0019
730.561	0.0014
730.809	0.001
731.056	0.0005
731.303	-0.0008
731.551	0.0004
731.798	0.0004
732.045	0.0012
732.292	-0
732.539	0.001
732.786	0.0013
733.033	0.0019
733.28	0.0019
733.527	0.0039
733.774	0.003
734.021	0.0039
734.267	0.0037
734.514	0.0042
734.76	0.0035
735.007	0.0055
735.253	0.006
735.5	0.0056
735.746	0.0059
735.992	0.0053
736.238	0.0048
736.485	0.0067
736.731	0.0058
736.977	0.0059
737.223	0.0041
737.469	0.0051
737.715	0.0059
737.96	0.0068
738.206	0.0069
738.452	0.0087
738.697	0.0087
738.943	0.0073
739.189	0.0051
739.434	0.0029
739.679	0.0022
739.925	0.0023
740.17	0.0018
740.415	0.0021
740.66	0.0031
740.906	0.0034
741.151	0.0032
741.396	0.0031
741.641	0.0053
741.886	0.0058
742.13	0.006
742.375	0.0058
742.62	0.0069
742.865	0.0052
743.109	0.0049
743.354	0.0047
743.598	0.0052
743.843	0.0051
744.087	0.0048
744.331	0.0044
744.576	0.0047
744.82	0.0045
745.064	0.0033
745.308	0.0029
745.552	0.0033
745.796	0.0035
746.04	0.0023
746.284	0.0019
746.528	0.0001
746.771	0.001
747.015	0.0005
747.259	0.001
747.502	0.0006
747.746	0.0024
747.989	0.0022
748.233	0.0034
748.476	0.0027
748.719	0.0042
748.963	0.0043
749.206	0.0034
749.449	0.0041
749.692	0.0031
749.935	0.0042
750.178	0.0042
750.421	0.0039
750.664	0.0043
750.906	0.0043
751.149	0.0038
751.392	0.0036
751.635	0.0016
751.877	-0.0001
752.12	0.0003
752.362	0.0014
752.604	0.0008
752.847	0.0018
753.089	0.0027
753.331	0.0019
753.573	0.0031
753.816	0.0026
754.058	0.0033
754.3	0.0033
754.542	0.0051
754.783	0.0038
755.025	0.0037
755.267	0.002
755.509	0.0015
755.75	0.0004
755.992	0.002
756.234	0.0016
756.475	0.0003
756.716	0.0003
756.958	0
757.199	0
757.44	0.0011
757.682	0.0016
757.923	0.0005
758.164	0
758.405	-0.0006
758.646	0.0004
758.887	0
759.128	0.0011
759.369	0.0004
759.609	-0.0003
759.85	-0.0001
760.091	0.0004
760.331	0.0006
760.572	0.0003
760.812	-0.0005
761.053	-0.0009
761.293	0.0006
761.533	0.0009
761.774	0.0011
762.014	0.0018
762.254	0.0016
762.494	0.0003
762.734	-0
762.974	0.0004
763.214	-0.0001
763.454	-0.0005
763.694	0.0002
763.933	-0.001
764.173	0.0002
764.413	0.0002
764.652	0.0007
764.892	0.0008
765.131	0.0017
765.371	0.0008
765.61	0.0022
765.849	0.0016
766.089	0.0018
766.328	0.0029
766.567	0.0033
766.806	0.0034
767.045	0.0032
767.284	0.0037
767.523	0.0042
767.762	0.0049
768.001	0.0042
768.239	0.0035
768.478	0.0018
768.717	0.0023
768.955	0.003
769.194	0.0017
769.432	0.0022
769.671	0.0039
769.909	0.0031
770.148	0.0035
770.386	0.0038
770.624	0.0029
770.862	0.0027
771.1	0.0029
771.338	0.0025
771.576	0.0028
771.814	0.0026
772.052	0.002
772.29	0.0031
772.528	0.0038
772.765	0.0035
773.003	0.0031
773.24	0.0032
773.478	0.0033
773.716	0.0042
773.953	0.0052
774.19	0.0043
774.428	0.0052
774.665	0.0043
774.902	0.0048
775.139	0.0032
775.376	0.0036
775.613	0.003
775.85	0.0032
776.087	0.0024
776.324	0.0029
776.561	0.003
776.798	0.0045
777.034	0.0049
777.271	0.0065
777.508	0.0068
777.744	0.0058
777.981	0.0054
778.217	0.0055
778.454	0.0049
778.69	0.0039
778.926	0.0054
779.162	0.0047
779.399	0.0042
779.635	0.0041
779.871	0.0038
780.107	0.0049
780.343	0.0052
780.579	0.0058
780.814	0.0048
781.05	0.0046
781.286	0.0048
781.522	0.0042
781.757	0.0059
781.993	0.006
782.228	0.0059
782.464	0.0053
782.699	0.0053
782.934	0.0036
783.17	0.0043
783.405	0.0037
783.64	0.0036
783.875	0.0033
784.11	0.0042
784.345	0.004
784.58	0.0039
784.815	0.0043
785.05	0.0045
785.285	0.003
785.52	0.0022
785.754	0.0021
785.989	0.0026
786.223	0.0013
786.458	0.0018
786.692	0.001
786.927	0.0011
787.161	0.0015
787.396	0.0008
787.63	0.0003
787.864	0.0008
788.098	0.0002
788.332	0.0006
788.566	0.0004
788.8	0.0002
789.034	0.0008
789.268	0.0012
789.502	0.0017
789.736	0.0026
789.969	0.0032
790.203	0.0026
790.437	0.003
790.67	0.0024
790.904	0.0027
791.137	0.0015
791.37	0.0012
791.604	0.0006
791.837	0.0005
792.07	0
792.303	0.0012
792.537	0.0006
792.77	0.0002
793.003	0.0003
793.236	-0.0003
793.469	-0.0004
793.701	-0.0004
793.934	0.0005
794.167	0.0005
794.4	0.0002
794.632	-0.0001
794.865	-0.0006
795.097	0.0007
795.33	0.0015
795.562	0.0002
795.795	0.001
796.027	0.0012
796.259	0.0012
796.491	-0.0001
796.724	0.0003
796.956	0.0004
797.188	0.0011
797.42	0.0007
797.652	0.0008
797.883	0.0008
798.115	-0.0007
798.347	0.0003
798.579	-0.001
798.81	-0.0021
799.042	-0.001
799.274	-0.002
799.505	-0.001
799.737	-0.0018
799.968	-0.0013
800.199	-0.0004
800.431	-0.0005
800.662	0.0005
800.893	0.0005
801.124	0.0006
801.355	0.0012
801.586	0.0014
801.817	0.0005
802.048	0.001
802.279	0.0009
802.51	0.0019
802.741	0.0002
802.971	0.0004
803.202	-0.0004
803.433	-0.0005
803.663	0.0004
803.894	0.0006
804.124	0.0004
804.354	0.0002
804.585	0.0002
804.815	0.0002
805.045	-0
805.275	-0.0007
805.506	-0.0461
805.736	0.1575
805.966	0.0629
806.196	0.1898
