Data from 03 0.2 mM BQDS 0.4 mM K2Cr2O7 1 M H2SO4 5 min_Absorbance_11-07-42-361.txt Node
Date: Wed Dec 08 11:07:42 EST 2021
User: kwabilab-user
Spectrometer: HDX00518
Trigger mode: 0
Integration Time (sec): 5.000000E-2
Scans to average: 50
Nonlinearity correction enabled: false
Boxcar width: 0
Storing dark spectrum: false
XAxis mode: Wavelengths
Number of Pixels in Spectrum: 2068
>>>>>Begin Spectral Data<<<<<
195.27	0.1466
195.642	0.0954
196.014	0.0933
196.386	0.1444
196.758	0.0324
197.129	0.0095
197.501	0.0399
197.872	0.0771
198.244	0.1139
198.615	0.113
198.986	0.0979
199.357	0.1052
199.728	0.1112
200.099	0.1037
200.47	0.1109
200.841	0.1077
201.212	0.1142
201.582	0.0964
201.953	0.0999
202.323	0.1014
202.694	0.0973
203.064	0.1054
203.434	0.0986
203.804	0.1214
204.174	0.0936
204.544	0.096
204.914	0.0935
205.284	0.1102
205.653	0.1227
206.023	0.1097
206.393	0.0934
206.762	0.1034
207.131	0.1199
207.501	0.1253
207.87	0.1319
208.239	0.1231
208.608	0.1127
208.977	0.1176
209.346	0.1248
209.715	0.1117
210.083	0.1276
210.452	0.1348
210.82	0.1347
211.189	0.1376
211.557	0.1238
211.925	0.1526
212.294	0.1535
212.662	0.1485
213.03	0.1607
213.398	0.1541
213.766	0.1757
214.133	0.1825
214.501	0.1765
214.869	0.196
215.236	0.2165
215.604	0.2156
215.971	0.2354
216.338	0.2542
216.705	0.2713
217.072	0.3117
217.439	0.3114
217.806	0.3509
218.173	0.3645
218.54	0.3868
218.907	0.4512
219.273	0.4929
219.64	0.4946
220.006	0.5412
220.373	0.5709
220.739	0.6155
221.105	0.6502
221.471	0.6825
221.837	0.7253
222.203	0.7565
222.569	0.7896
222.935	0.8262
223.3	0.8386
223.666	0.8837
224.031	0.8994
224.397	0.9146
224.762	0.9365
225.127	0.9585
225.493	0.9695
225.858	0.9721
226.223	0.9849
226.588	0.9944
226.952	0.9964
227.317	1.004
227.682	0.9966
228.046	0.9948
228.411	1.0007
228.775	0.9995
229.14	0.9878
229.504	0.9844
229.868	0.9828
230.232	0.9783
230.596	0.9691
230.96	0.964
231.324	0.9586
231.688	0.9404
232.052	0.9393
232.415	0.9236
232.779	0.9237
233.142	0.9156
233.505	0.9015
233.869	0.8943
234.232	0.8874
234.595	0.8784
234.958	0.8688
235.321	0.8572
235.684	0.8485
236.047	0.8418
236.409	0.828
236.772	0.8204
237.134	0.8107
237.497	0.803
237.859	0.7958
238.222	0.7868
238.584	0.7772
238.946	0.7688
239.308	0.76
239.67	0.7568
240.032	0.7462
240.393	0.7375
240.755	0.7305
241.117	0.7243
241.478	0.7176
241.84	0.7148
242.201	0.7042
242.562	0.6979
242.924	0.6946
243.285	0.6874
243.646	0.6793
244.007	0.677
244.368	0.67
244.728	0.6668
245.089	0.6612
245.45	0.656
245.81	0.6511
246.171	0.6482
246.531	0.6449
246.891	0.6383
247.252	0.636
247.612	0.6318
247.972	0.6286
248.332	0.6263
248.692	0.6222
249.051	0.6198
249.411	0.617
249.771	0.6122
250.13	0.6116
250.49	0.6097
250.849	0.6067
251.208	0.6042
251.568	0.6015
251.927	0.5991
252.286	0.5964
252.645	0.5972
253.004	0.5936
253.363	0.5907
253.721	0.5902
254.08	0.5866
254.439	0.5852
254.797	0.584
255.155	0.5829
255.514	0.5792
255.872	0.5791
256.23	0.5762
256.588	0.5738
256.946	0.5732
257.304	0.5724
257.662	0.571
258.02	0.5677
258.377	0.5681
258.735	0.5649
259.093	0.563
259.45	0.5637
259.807	0.5598
260.165	0.5598
260.522	0.5567
260.879	0.5549
261.236	0.554
261.593	0.5514
261.95	0.5496
262.306	0.5496
262.663	0.5478
263.02	0.5463
263.376	0.5426
263.733	0.5421
264.089	0.54
264.445	0.5384
264.802	0.5355
265.158	0.5324
265.514	0.5327
265.87	0.5309
266.226	0.527
266.581	0.5252
266.937	0.5217
267.293	0.5218
267.648	0.5202
268.004	0.5175
268.359	0.5125
268.714	0.5113
269.07	0.5081
269.425	0.5055
269.78	0.5051
270.135	0.5035
270.49	0.499
270.844	0.4968
271.199	0.4947
271.554	0.4908
271.908	0.4884
272.263	0.4858
272.617	0.4843
272.972	0.4806
273.326	0.4772
273.68	0.4752
274.034	0.4712
274.388	0.4689
274.742	0.4654
275.096	0.4622
275.45	0.4589
275.803	0.4556
276.157	0.4524
276.51	0.4493
276.864	0.4461
277.217	0.4425
277.571	0.4386
277.924	0.4347
278.277	0.4317
278.63	0.4292
278.983	0.4246
279.336	0.4217
279.688	0.4197
280.041	0.4153
280.394	0.4107
280.746	0.4079
281.099	0.4033
281.451	0.3992
281.803	0.3956
282.156	0.393
282.508	0.3894
282.86	0.384
283.212	0.3813
283.564	0.3781
283.916	0.3734
284.267	0.3702
284.619	0.3668
284.971	0.3629
285.322	0.3592
285.673	0.3555
286.025	0.3513
286.376	0.3474
286.727	0.3435
287.078	0.34
287.429	0.3382
287.78	0.3319
288.131	0.3286
288.482	0.3252
288.833	0.3218
289.183	0.3162
289.534	0.3126
289.884	0.3096
290.235	0.3066
290.585	0.3014
290.935	0.2984
291.285	0.2945
291.635	0.2918
291.985	0.2872
292.335	0.2845
292.685	0.2797
293.035	0.2768
293.384	0.2733
293.734	0.2682
294.083	0.2654
294.433	0.2614
294.782	0.2579
295.131	0.2549
295.48	0.2514
295.829	0.2491
296.179	0.2435
296.527	0.241
296.876	0.2384
297.225	0.2353
297.574	0.2321
297.922	0.2286
298.271	0.2254
298.619	0.2225
298.968	0.2198
299.316	0.2167
299.664	0.2143
300.012	0.2108
300.36	0.2076
300.708	0.2055
301.056	0.2031
301.404	0.2007
301.752	0.1978
302.099	0.1962
302.447	0.1938
302.794	0.1909
303.142	0.1886
303.489	0.1865
303.836	0.1845
304.183	0.1824
304.531	0.1813
304.878	0.1792
305.224	0.1769
305.571	0.1755
305.918	0.1737
306.265	0.1722
306.611	0.1708
306.958	0.1693
307.304	0.1685
307.651	0.167
307.997	0.1657
308.343	0.1645
308.689	0.1633
309.035	0.1621
309.381	0.1616
309.727	0.1601
310.073	0.1602
310.419	0.1591
310.764	0.1584
311.11	0.1577
311.455	0.1578
311.801	0.1566
312.146	0.1564
312.491	0.1556
312.837	0.1554
313.182	0.1551
313.527	0.155
313.872	0.1543
314.216	0.1545
314.561	0.154
314.906	0.1542
315.251	0.1536
315.595	0.154
315.94	0.1545
316.284	0.1541
316.628	0.1543
316.972	0.1543
317.317	0.1546
317.661	0.1549
318.005	0.1555
318.348	0.1558
318.692	0.1558
319.036	0.156
319.38	0.1564
319.723	0.1573
320.067	0.1578
320.41	0.1583
320.754	0.1591
321.097	0.159
321.44	0.1606
321.783	0.1605
322.126	0.1619
322.469	0.1632
322.812	0.1637
323.155	0.1647
323.498	0.1657
323.84	0.1665
324.183	0.1674
324.525	0.168
324.868	0.1692
325.21	0.1705
325.552	0.1717
325.894	0.1719
326.236	0.1732
326.578	0.1748
326.92	0.1761
327.262	0.1766
327.604	0.1776
327.946	0.1787
328.287	0.1806
328.629	0.1811
328.97	0.182
329.312	0.1835
329.653	0.1853
329.994	0.1862
330.335	0.1877
330.676	0.1879
331.017	0.189
331.358	0.1911
331.699	0.192
332.04	0.1936
332.38	0.1946
332.721	0.1964
333.061	0.1969
333.402	0.1981
333.742	0.2003
334.083	0.2016
334.423	0.2015
334.763	0.2025
335.103	0.2044
335.443	0.2049
335.783	0.2056
336.123	0.206
336.462	0.2082
336.802	0.2084
337.141	0.2095
337.481	0.2108
337.82	0.2113
338.16	0.2125
338.499	0.2133
338.838	0.2144
339.177	0.2158
339.516	0.2167
339.855	0.2172
340.194	0.218
340.533	0.219
340.872	0.2194
341.21	0.2214
341.549	0.2217
341.887	0.222
342.226	0.2225
342.564	0.2224
342.902	0.2235
343.24	0.2233
343.578	0.2243
343.916	0.224
344.254	0.2245
344.592	0.2245
344.93	0.2246
345.268	0.2246
345.605	0.2251
345.943	0.2255
346.28	0.2251
346.618	0.2249
346.955	0.2256
347.292	0.2254
347.629	0.2256
347.966	0.226
348.303	0.2269
348.64	0.2262
348.977	0.2261
349.314	0.2264
349.65	0.2259
349.987	0.2261
350.324	0.2253
350.66	0.2255
350.996	0.2251
351.333	0.2237
351.669	0.2237
352.005	0.2236
352.341	0.2226
352.677	0.2212
353.013	0.2201
353.349	0.2199
353.685	0.2187
354.02	0.2171
354.356	0.2169
354.691	0.2156
355.027	0.215
355.362	0.2142
355.697	0.2134
356.033	0.2118
356.368	0.2112
356.703	0.2106
357.038	0.2099
357.373	0.2082
357.707	0.2078
358.042	0.2076
358.377	0.2065
358.711	0.2045
359.046	0.2039
359.38	0.2032
359.715	0.2026
360.049	0.2014
360.383	0.2003
360.717	0.1992
361.051	0.1965
361.385	0.1966
361.719	0.194
362.053	0.1931
362.387	0.1908
362.72	0.1895
363.054	0.1881
363.387	0.1856
363.721	0.1852
364.054	0.1832
364.387	0.1807
364.721	0.1799
365.054	0.1781
365.387	0.1777
365.72	0.1746
366.053	0.1731
366.385	0.172
366.718	0.1705
367.051	0.1694
367.383	0.1676
367.716	0.1667
368.048	0.1655
368.381	0.1644
368.713	0.1631
369.045	0.1618
369.377	0.1603
369.709	0.1589
370.041	0.157
370.373	0.1563
370.705	0.155
371.037	0.1529
371.368	0.1518
371.7	0.1501
372.031	0.1491
372.363	0.1471
372.694	0.1454
373.025	0.144
373.356	0.1414
373.688	0.1397
374.019	0.1378
374.35	0.1357
374.68	0.1335
375.011	0.1323
375.342	0.13
375.673	0.1282
376.003	0.1264
376.334	0.1253
376.664	0.1233
376.995	0.1223
377.325	0.1206
377.655	0.1198
377.985	0.1177
378.315	0.1169
378.645	0.1154
378.975	0.1137
379.305	0.113
379.635	0.1123
379.964	0.1103
380.294	0.1093
380.623	0.1084
380.953	0.1079
381.282	0.1063
381.611	0.1046
381.941	0.1034
382.27	0.1022
382.599	0.1002
382.928	0.0991
383.257	0.0979
383.585	0.0971
383.914	0.0956
384.243	0.0945
384.571	0.092
384.9	0.091
385.228	0.0887
385.557	0.0881
385.885	0.0867
386.213	0.0847
386.541	0.0833
386.869	0.0821
387.197	0.0802
387.525	0.0788
387.853	0.0771
388.181	0.0767
388.508	0.0758
388.836	0.0745
389.164	0.0729
389.491	0.0721
389.818	0.0713
390.146	0.0701
390.473	0.0679
390.8	0.0681
391.127	0.0666
391.454	0.0663
391.781	0.0647
392.108	0.0638
392.435	0.0623
392.761	0.0615
393.088	0.0614
393.415	0.0607
393.741	0.0607
394.067	0.0591
394.394	0.0592
394.72	0.0574
395.046	0.0567
395.372	0.0557
395.698	0.0547
396.024	0.0548
396.35	0.0535
396.676	0.0531
397.001	0.0525
397.327	0.0514
397.653	0.0505
397.978	0.0492
398.303	0.0482
398.629	0.0476
398.954	0.048
399.279	0.0468
399.604	0.0468
399.929	0.0455
400.254	0.0454
400.579	0.0452
400.904	0.044
401.229	0.0439
401.553	0.0422
401.878	0.0423
402.202	0.0423
402.527	0.0414
402.851	0.0416
403.175	0.041
403.5	0.0406
403.824	0.041
404.148	0.04
404.472	0.0397
404.796	0.0389
405.119	0.0388
405.443	0.0386
405.767	0.0377
406.09	0.0378
406.414	0.0384
406.737	0.0379
407.061	0.0378
407.384	0.0372
407.707	0.0371
408.03	0.0376
408.353	0.0375
408.676	0.0371
408.999	0.0367
409.322	0.0371
409.645	0.037
409.968	0.0364
410.29	0.0362
410.613	0.036
410.935	0.0356
411.258	0.037
411.58	0.036
411.902	0.0366
412.224	0.0364
412.546	0.0361
412.868	0.036
413.19	0.0363
413.512	0.0363
413.834	0.0359
414.156	0.0364
414.477	0.036
414.799	0.0358
415.121	0.0364
415.442	0.0363
415.763	0.0369
416.085	0.0362
416.406	0.0365
416.727	0.0364
417.048	0.0358
417.369	0.036
417.69	0.0359
418.011	0.0362
418.331	0.0363
418.652	0.0365
418.973	0.0363
419.293	0.0361
419.614	0.0368
419.934	0.0361
420.254	0.0366
420.574	0.0358
420.895	0.0361
421.215	0.036
421.535	0.0358
421.855	0.0356
422.174	0.0359
422.494	0.0364
422.814	0.037
423.134	0.0368
423.453	0.0368
423.773	0.0365
424.092	0.0366
424.411	0.0367
424.731	0.0371
425.05	0.037
425.369	0.0371
425.688	0.0375
426.007	0.0374
426.326	0.0375
426.644	0.0381
426.963	0.038
427.282	0.0383
427.6	0.0379
427.919	0.0379
428.237	0.0382
428.556	0.0381
428.874	0.0377
429.192	0.0377
429.51	0.0375
429.828	0.038
430.146	0.0382
430.464	0.0382
430.782	0.0381
431.1	0.0381
431.418	0.0375
431.735	0.0383
432.053	0.0387
432.37	0.0383
432.688	0.0384
433.005	0.0383
433.322	0.0386
433.639	0.0384
433.957	0.0388
434.274	0.0396
434.591	0.0381
434.907	0.0388
435.224	0.0388
435.541	0.039
435.858	0.0398
436.174	0.0388
436.491	0.0393
436.807	0.039
437.124	0.0381
437.44	0.0379
437.756	0.0386
438.072	0.0377
438.388	0.0388
438.704	0.0387
439.02	0.0389
439.336	0.0382
439.652	0.0387
439.968	0.0386
440.283	0.0382
440.599	0.0383
440.914	0.0394
441.23	0.0382
441.545	0.0379
441.86	0.0382
442.175	0.0389
442.491	0.0385
442.806	0.0387
443.121	0.0387
443.435	0.0383
443.75	0.0383
444.065	0.0381
444.38	0.0387
444.694	0.0383
445.009	0.0386
445.323	0.0383
445.638	0.038
445.952	0.0381
446.266	0.0375
446.58	0.038
446.894	0.0378
447.208	0.0386
447.522	0.0384
447.836	0.0373
448.15	0.0375
448.464	0.0373
448.777	0.0373
449.091	0.0373
449.404	0.0378
449.718	0.0378
450.031	0.037
450.345	0.0365
450.658	0.037
450.971	0.0373
451.284	0.0368
451.597	0.0372
451.91	0.0379
452.223	0.0366
452.535	0.037
452.848	0.0365
453.161	0.0364
453.473	0.0369
453.786	0.0372
454.098	0.036
454.411	0.0359
454.723	0.0354
455.035	0.0362
455.347	0.036
455.659	0.0364
455.971	0.0358
456.283	0.0366
456.595	0.0359
456.907	0.036
457.218	0.0352
457.53	0.0355
457.841	0.0346
458.153	0.0349
458.464	0.0343
458.776	0.0331
459.087	0.0336
459.398	0.0344
459.709	0.0339
460.02	0.0335
460.331	0.0337
460.642	0.0331
460.953	0.0331
461.263	0.0335
461.574	0.0334
461.885	0.0331
462.195	0.0331
462.506	0.0332
462.816	0.0327
463.126	0.0323
463.437	0.0319
463.747	0.0315
464.057	0.0323
464.367	0.0317
464.677	0.0311
464.987	0.0313
465.296	0.0309
465.606	0.0309
465.916	0.0305
466.225	0.0303
466.535	0.0305
466.844	0.0304
467.154	0.0297
467.463	0.0297
467.772	0.0302
468.081	0.029
468.39	0.0293
468.699	0.0285
469.008	0.029
469.317	0.0295
469.626	0.0289
469.935	0.028
470.243	0.029
470.552	0.0292
470.86	0.029
471.169	0.0284
471.477	0.0281
471.785	0.0291
472.093	0.0288
472.402	0.0272
472.71	0.0266
473.018	0.0267
473.326	0.027
473.633	0.0265
473.941	0.0263
474.249	0.026
474.556	0.026
474.864	0.0259
475.171	0.0253
475.479	0.0258
475.786	0.0255
476.094	0.0256
476.401	0.0254
476.708	0.0248
477.015	0.0256
477.322	0.0252
477.629	0.025
477.936	0.0243
478.242	0.0237
478.549	0.0238
478.856	0.0236
479.162	0.0238
479.469	0.023
479.775	0.0239
480.081	0.0224
480.388	0.0233
480.694	0.0222
481	0.0228
481.306	0.0227
481.612	0.0227
481.918	0.0213
482.224	0.022
482.53	0.0217
482.835	0.0208
483.141	0.0202
483.446	0.0208
483.752	0.0201
484.057	0.0197
484.363	0.0194
484.668	0.0198
484.973	0.0194
485.278	0.019
485.583	0.0191
485.888	0.0181
486.193	0.0185
486.498	0.0187
486.803	0.0193
487.107	0.0184
487.412	0.0178
487.717	0.0179
488.021	0.0182
488.325	0.017
488.63	0.0174
488.934	0.0171
489.238	0.0177
489.542	0.0172
489.846	0.0154
490.15	0.0173
490.454	0.017
490.758	0.0165
491.062	0.0163
491.366	0.0159
491.669	0.0163
491.973	0.0159
492.276	0.0154
492.58	0.0153
492.883	0.0155
493.186	0.0162
493.489	0.0149
493.792	0.015
494.096	0.0156
494.399	0.0145
494.701	0.0146
495.004	0.0151
495.307	0.013
495.61	0.0137
495.912	0.0135
496.215	0.0131
496.517	0.0131
496.82	0.0134
497.122	0.0127
497.424	0.0125
497.727	0.0122
498.029	0.0133
498.331	0.0127
498.633	0.0131
498.935	0.012
499.237	0.0128
499.538	0.0117
499.84	0.0122
500.142	0.0124
500.443	0.0126
500.745	0.0119
501.046	0.0123
501.348	0.0103
501.649	0.0112
501.95	0.0114
502.251	0.0109
502.552	0.0097
502.853	0.0104
503.154	0.0102
503.455	0.0091
503.756	0.0102
504.057	0.0106
504.357	0.0102
504.658	0.0103
504.958	0.0089
505.259	0.0104
505.559	0.0102
505.859	0.0091
506.16	0.0097
506.46	0.0095
506.76	0.0098
507.06	0.0095
507.36	0.0093
507.66	0.009
507.96	0.0095
508.259	0.0077
508.559	0.008
508.859	0.0087
509.158	0.0082
509.457	0.0078
509.757	0.0089
510.056	0.0082
510.355	0.0077
510.655	0.0067
510.954	0.007
511.253	0.0077
511.552	0.0081
511.851	0.0074
512.149	0.0071
512.448	0.0071
512.747	0.0078
513.045	0.0058
513.344	0.0076
513.642	0.0075
513.941	0.007
514.239	0.0062
514.537	0.0067
514.836	0.007
515.134	0.0062
515.432	0.0068
515.73	0.0071
516.028	0.0052
516.326	0.0068
516.623	0.0056
516.921	0.0061
517.219	0.0079
517.516	0.0062
517.814	0.0059
518.111	0.0068
518.409	0.008
518.706	0.0067
519.003	0.0071
519.3	0.0052
519.597	0.0061
519.894	0.0061
520.191	0.0061
520.488	0.0068
520.785	0.0048
521.082	0.0051
521.378	0.0057
521.675	0.0047
521.971	0.0053
522.268	0.005
522.564	0.0054
522.861	0.0053
523.157	0.0042
523.453	0.0047
523.749	0.0057
524.045	0.0053
524.341	0.0053
524.637	0.0039
524.933	0.0053
525.229	0.0046
525.524	0.0047
525.82	0.0046
526.115	0.0041
526.411	0.0046
526.706	0.005
527.002	0.0053
527.297	0.0031
527.592	0.0054
527.887	0.0062
528.182	0.0047
528.477	0.0055
528.772	0.0045
529.067	0.0053
529.362	0.0045
529.657	0.0041
529.951	0.005
530.246	0.0034
530.54	0.0033
530.835	0.0031
531.129	0.0023
531.423	0.0041
531.718	0.0045
532.012	0.0027
532.306	0.0033
532.6	0.0029
532.894	0.0029
533.188	0.0035
533.482	0.0024
533.775	0.0033
534.069	0.003
534.363	0.0028
534.656	0.003
534.95	0.003
535.243	0.0036
535.536	0.0041
535.83	0.0034
536.123	0.0026
536.416	0.0039
536.709	0.0029
537.002	0.0045
537.295	0.0031
537.588	0.003
537.881	0.0026
538.173	0.0025
538.466	0.0023
538.759	0.0026
539.051	0.0019
539.344	0.0029
539.636	0.0018
539.928	0.0024
540.22	0.0028
540.513	0.003
540.805	0.0021
541.097	0.0028
541.389	0.0025
541.681	0.0028
541.972	0.0022
542.264	0.0014
542.556	0.0016
542.847	0.0023
543.139	0.003
543.431	0.003
543.722	0.0023
544.013	0.0037
544.305	0.0039
544.596	0.0039
544.887	0.0024
545.178	0.0026
545.469	0.0028
545.76	0.0022
546.051	0.0022
546.342	0.003
546.632	0.0017
546.923	0.0025
547.214	0.0032
547.504	0.0024
547.795	0.0032
548.085	0.0031
548.375	0.0029
548.666	0.0029
548.956	0.0014
549.246	0.0033
549.536	0.0022
549.826	0.0028
550.116	0.0034
550.406	0.0029
550.695	0.0042
550.985	0.0027
551.275	0.0049
551.564	0.003
551.854	0.0036
552.143	0.0029
552.433	0.0036
552.722	0.0032
553.011	0.0028
553.3	0.0033
553.589	0.0027
553.879	0.002
554.167	0.0034
554.456	0.0028
554.745	0.003
555.034	0.002
555.323	0.0012
555.611	0.0023
555.9	0.0035
556.188	0.0027
556.477	0.0025
556.765	0.0023
557.053	0.0024
557.342	0.0026
557.63	0.0032
557.918	0.0022
558.206	0.0031
558.494	0.0032
558.782	0.0026
559.069	0.0028
559.357	0.0038
559.645	0.0028
559.932	0.0023
560.22	0.0028
560.507	0.0045
560.795	0.0027
561.082	0.0029
561.37	0.0031
561.657	0.0022
561.944	0.0028
562.231	0.0034
562.518	0.0022
562.805	0.003
563.092	0.0027
563.379	0.003
563.665	0.0031
563.952	0.0038
564.239	0.0032
564.525	0.0038
564.811	0.0041
565.098	0.0036
565.384	0.0038
565.67	0.0039
565.957	0.0039
566.243	0.0029
566.529	0.0044
566.815	0.005
567.101	0.0033
567.387	0.0031
567.672	0.0034
567.958	0.0032
568.244	0.0027
568.529	0.0035
568.815	0.0021
569.1	0.0029
569.386	0.0032
569.671	0.0029
569.956	0.0026
570.242	0.0025
570.527	0.0035
570.812	0.0032
571.097	0.0027
571.382	0.0024
571.666	0.0023
571.951	0.0024
572.236	0.0027
572.521	0.0018
572.805	0.0027
573.09	0.0015
573.374	0.0022
573.659	0.0019
573.943	0.003
574.227	0.0018
574.511	0.0028
574.795	0.0024
575.079	0.0019
575.363	0.002
575.647	0.003
575.931	0.0026
576.215	0.0032
576.499	0.0016
576.782	0.0023
577.066	0.0016
577.349	0.0027
577.633	0.0032
577.916	0.0027
578.2	0.0033
578.483	0.0028
578.766	0.0027
579.049	0.0035
579.332	0.0035
579.615	0.0025
579.898	0.0025
580.181	0.0029
580.464	0.0025
580.746	0.0021
581.029	0.003
581.312	0.0017
581.594	0.0014
581.877	0.0024
582.159	0.0031
582.441	0.0032
582.724	0.0027
583.006	0.0028
583.288	0.0011
583.57	0.002
583.852	0.0018
584.134	0.0014
584.416	0.0028
584.697	0.0016
584.979	0.0022
585.261	0.002
585.542	0.0024
585.824	0.0023
586.105	0.0029
586.387	0.0025
586.668	0.0026
586.949	0.0026
587.231	0.0016
587.512	0.0026
587.793	0.002
588.074	0.0026
588.355	0.0023
588.636	0.003
588.916	0.0033
589.197	0.0022
589.478	0.0035
589.758	0.0029
590.039	0.0028
590.319	0.0026
590.6	0.0027
590.88	0.002
591.16	0.0023
591.441	0.0033
591.721	0.0035
592.001	0.0031
592.281	0.0026
592.561	0.0035
592.841	0.0031
593.12	0.0024
593.4	0.0023
593.68	0.0029
593.959	0.0026
594.239	0.0034
594.518	0.0018
594.798	0.003
595.077	0.0028
595.356	0.0025
595.636	0.0026
595.915	0.0031
596.194	0.0028
596.473	0.0032
596.752	0.0022
597.031	0.002
597.31	0.0011
597.588	0.0018
597.867	0.001
598.146	0.0026
598.424	0.0017
598.703	0.0013
598.981	0.0019
599.259	0.0021
599.538	0.0028
599.816	0.0027
600.094	0.0021
600.372	0.0021
600.65	0.0033
600.928	0.0031
601.206	0.0027
601.484	0.0033
601.762	0.0036
602.04	0.0027
602.317	0.0025
602.595	0.0024
602.872	0.0024
603.15	0.0021
603.427	0.0017
603.704	0.0015
603.982	0.0022
604.259	0.0015
604.536	0.0024
604.813	0.0018
605.09	0.0026
605.367	0.0014
605.644	0.0013
605.921	0.0016
606.197	0.002
606.474	0.002
606.751	0.0026
607.027	0.0025
607.304	0.0014
607.58	0.002
607.856	0.0017
608.133	0.0029
608.409	0.0031
608.685	0.0029
608.961	0.0021
609.237	0.0031
609.513	0.0023
609.789	0.0026
610.065	0.0012
610.341	0.0025
610.616	0.0027
610.892	0.0032
611.167	0.0024
611.443	0.0014
611.718	0.0017
611.994	0.0012
612.269	0.0018
612.544	0.0021
612.819	0.0014
613.095	0.0022
613.37	0.0016
613.645	0.0013
613.919	0.0012
614.194	0.0024
614.469	0.0013
614.744	0.0012
615.019	0.0012
615.293	0.0008
615.568	0.0003
615.842	0.0015
616.116	0.0017
616.391	0.0011
616.665	0.0025
616.939	0.002
617.213	0.0019
617.488	0.0015
617.762	0.0023
618.035	0.0012
618.309	0.0019
618.583	0.0013
618.857	0.0022
619.131	0.0024
619.404	0.0012
619.678	0.0013
619.951	0.0009
620.225	0.0008
620.498	0.0015
620.771	0.0015
621.045	0.0031
621.318	0.0013
621.591	0.0012
621.864	-0
622.137	0.0003
622.41	0.0019
622.683	0.0008
622.956	0.0023
623.228	0.0017
623.501	0.0023
623.774	0.0031
624.046	0.0019
624.319	0.002
624.591	0.0004
624.863	0.0016
625.136	0.0015
625.408	0.0023
625.68	0.0018
625.952	0.0023
626.224	0.0025
626.496	0.0024
626.768	0.0016
627.04	0.0022
627.311	0.0022
627.583	0.0018
627.855	0.0014
628.126	0.0022
628.398	0.0027
628.669	0.0024
628.941	0.0015
629.212	0.0004
629.483	0.0014
629.755	0.0014
630.026	0.0014
630.297	0.0006
630.568	0.0011
630.839	0.0003
631.11	-0.0001
631.38	-0.0001
631.651	0.0002
631.922	-0.0002
632.192	-0.0006
632.463	-0.0002
632.733	0.0002
633.004	-0.0005
633.274	-0.0002
633.545	0.0006
633.815	0.0022
634.085	0.0027
634.355	0.0015
634.625	0.0025
634.895	0.0014
635.165	0.0007
635.435	0.0011
635.705	0.0013
635.974	0.0003
636.244	0.0014
636.514	0.0016
636.783	0.0014
637.053	0.0024
637.322	0.0019
637.591	0.0018
637.861	0.0018
638.13	0.0019
638.399	0.0014
638.668	0.0018
638.937	0.001
639.206	0.0012
639.475	0.0028
639.744	0.0029
640.013	0.0024
640.281	0.0031
640.55	0.0035
640.819	0.0018
641.087	0.0025
641.356	0.0019
641.624	0.0021
641.892	0.0025
642.161	0.0024
642.429	0.0025
642.697	0.0013
642.965	0.0035
643.233	0.0029
643.501	0.0022
643.769	0.0008
644.037	0.001
644.305	0.0014
644.572	-0.0002
644.84	0.0003
645.108	0.0006
645.375	0.0004
645.643	0.0016
645.91	0.001
646.177	0.0026
646.445	0.0037
646.712	0.0033
646.979	0.0041
647.246	0.0039
647.513	0.0042
647.78	0.003
648.047	0.0036
648.314	0.0028
648.58	0.0031
648.847	0.0015
649.114	0.0007
649.38	0.0007
649.647	0.0011
649.913	0.0007
650.18	0.0011
650.446	0.0008
650.712	0.0022
650.978	0.0024
651.245	0.0026
651.511	0.0028
651.777	0.0011
652.043	0.0032
652.309	0.002
652.574	0.0029
652.84	0.0016
653.106	0.0013
653.371	0.0003
653.637	0.0011
653.903	0.0029
654.168	0.002
654.433	0.0022
654.699	0.0026
654.964	0.0034
655.229	0.0027
655.494	0.0017
655.759	-0
656.024	0.0004
656.289	-0
656.554	0.0009
656.819	0.0008
657.084	0.0021
657.349	0.0026
657.613	0.0027
657.878	0.0027
658.142	0.0034
658.407	0.003
658.671	0.0021
658.936	0.0015
659.2	0.0009
659.464	0.0007
659.728	0.0016
659.992	0.002
660.256	0.0009
660.52	0.0007
660.784	0.0005
661.048	0.0008
661.312	0
661.575	-0.0009
661.839	-0.0021
662.103	-0.0013
662.366	-0.0014
662.63	-0.0003
662.893	-0.0001
663.156	-0.0002
663.42	-0.0002
663.683	0.0004
663.946	0.0004
664.209	0.0023
664.472	0.0019
664.735	0.0018
664.998	0.0013
665.261	0.0016
665.524	0.0007
665.786	0.001
666.049	0.0008
666.312	0.0008
666.574	0.0009
666.837	0.0006
667.099	-0.0003
667.361	-0.0005
667.624	-0.0011
667.886	0.0004
668.148	0.0005
668.41	0.0027
668.672	0.0012
668.934	0.0015
669.196	0.0009
669.458	0.0011
669.72	0.0026
669.982	0.002
670.243	0.0021
670.505	0.0015
670.766	0.0009
671.028	0.0022
671.289	0.0014
671.551	0.0016
671.812	0.0002
672.073	0.002
672.334	0.0001
672.596	0.0005
672.857	0.0001
673.118	-0.0002
673.379	-0.0006
673.639	-0.0002
673.9	-0.0004
674.161	-0.0011
674.422	-0.0024
674.682	-0.0015
674.943	-0.0015
675.203	-0.0002
675.464	-0.0004
675.724	0.0013
675.985	0.0007
676.245	0.0018
676.505	0.0029
676.765	0.0019
677.025	0.0024
677.285	0.0021
677.545	0.0037
677.805	0.003
678.065	0.0032
678.325	0.0029
678.585	0.0026
678.844	0.0023
679.104	0.002
679.363	0.0024
679.623	0.0026
679.882	0.0033
680.142	0.0041
680.401	0.0043
680.66	0.0047
680.919	0.0034
681.178	0.0049
681.437	0.0043
681.696	0.0035
681.955	0.0044
682.214	0.0043
682.473	0.004
682.732	0.0023
682.99	0.003
683.249	0.0029
683.508	0.003
683.766	0.0032
684.024	0.0024
684.283	0.0041
684.541	0.0031
684.799	0.0033
685.058	0.0021
685.316	0.0028
685.574	0.0034
685.832	0.0029
686.09	0.0032
686.348	0.0041
686.606	0.0041
686.863	0.0044
687.121	0.0045
687.379	0.0044
687.636	0.0038
687.894	0.0046
688.151	0.0048
688.409	0.0047
688.666	0.0037
688.923	0.0046
689.181	0.0038
689.438	0.0029
689.695	0.0023
689.952	0.0013
690.209	0.0011
690.466	0.0014
690.723	0.003
690.979	0.0019
691.236	0.0013
691.493	0.0011
691.75	0.0027
692.006	0.003
692.263	0.0032
692.519	0.003
692.775	0.0026
693.032	0.0009
693.288	0.002
693.544	0.0029
693.8	0.0022
694.056	0.0026
694.313	0.0024
694.568	0.0024
694.824	0.0022
695.08	0.0036
695.336	0.0036
695.592	0.003
695.847	0.0034
696.103	0.0032
696.359	0.0035
696.614	0.0025
696.869	0.0013
697.125	0.0001
697.38	0.0005
697.635	-0.0002
697.891	0.0001
698.146	0.0003
698.401	0.0021
698.656	0.0007
698.911	0.0012
699.166	0.0004
699.42	0.0009
699.675	0.001
699.93	-0.0004
700.185	0.0001
700.439	0.0018
700.694	0.001
700.948	0.0012
701.203	0.0021
701.457	0.0012
701.711	0.0016
701.965	-0.0008
702.22	-0.0001
702.474	0.0005
702.728	-0.0004
702.982	0.0001
703.236	-0
703.49	0.0003
703.743	0.0004
703.997	0.0003
704.251	0.0013
704.504	0.0012
704.758	0.0006
705.012	-0.0002
705.265	0.0002
705.518	0
705.772	-0.0005
706.025	0.0002
706.278	-0.0002
706.531	-0.0004
706.785	-0.0019
707.038	-0.0002
707.291	-0.0008
707.543	-0.0009
707.796	-0.0003
708.049	-0.0019
708.302	-0.0012
708.555	-0.0009
708.807	-0.0004
709.06	-0.0012
709.312	-0.0019
709.565	-0.0025
709.817	-0.0021
710.069	-0.0012
710.322	-0.0012
710.574	-0.0009
710.826	-0.001
711.078	-0.001
711.33	-0.0004
711.582	-0.0011
711.834	-0
712.086	0.0005
712.338	0.002
712.59	0.0018
712.841	0.001
713.093	0.0006
713.344	0.0004
713.596	0.0015
713.847	0.0015
714.099	0.0023
714.35	0.0017
714.601	0.0019
714.853	0.0033
715.104	0.0024
715.355	0.0014
715.606	0.0018
715.857	0.0022
716.108	0.003
716.359	0.0025
716.609	0.003
716.86	0.0017
717.111	0.0011
717.361	-0.0008
717.612	-0.0007
717.863	-0
718.113	0.0001
718.363	-0.0002
718.614	0.0013
718.864	0.0012
719.114	0.0009
719.364	0.0005
719.614	0
719.865	-0.001
720.114	-0.0004
720.364	0.0003
720.614	0.0016
720.864	0.0023
721.114	0.0019
721.364	0.0029
721.613	0.0027
721.863	0.003
722.112	0.0033
722.362	0.003
722.611	0.0026
722.86	0.0015
723.11	0.0009
723.359	0.0014
723.608	0.0028
723.857	0.0033
724.106	0.0049
724.355	0.0059
724.604	0.0055
724.853	0.0043
725.102	0.0037
725.351	0.0025
725.599	0.0021
725.848	0.0024
726.097	0.0019
726.345	0.002
726.594	0.0025
726.842	0.0016
727.09	0.0017
727.339	0.0015
727.587	0.0005
727.835	-0.0004
728.083	-0.0006
728.331	-0.0009
728.579	-0.0015
728.827	-0.0002
729.075	-0.0006
729.323	0.0002
729.571	0.0012
729.818	0.0006
730.066	0.0015
730.314	0.0017
730.561	0.0004
730.809	-0.0005
731.056	-0.0005
731.303	-0.0005
731.551	0.0006
731.798	0.0001
732.045	-0.0001
732.292	0.0009
732.539	0.001
732.786	0.0009
733.033	0.0018
733.28	0.0023
733.527	0.0032
733.774	0.0029
734.021	0.003
734.267	0.0041
734.514	0.0035
734.76	0.0039
735.007	0.006
735.253	0.0055
735.5	0.0052
735.746	0.0053
735.992	0.0048
736.238	0.0045
736.485	0.0059
736.731	0.0055
736.977	0.0048
737.223	0.004
737.469	0.0051
737.715	0.0053
737.96	0.0067
738.206	0.0059
738.452	0.0085
738.697	0.0073
738.943	0.006
739.189	0.0047
739.434	0.0021
739.679	0.0015
739.925	0.0018
740.17	0.0006
740.415	0.0015
740.66	0.0023
740.906	0.0031
741.151	0.0025
741.396	0.0023
741.641	0.0047
741.886	0.0054
742.13	0.006
742.375	0.0051
742.62	0.0069
742.865	0.0053
743.109	0.0053
743.354	0.0053
743.598	0.0048
743.843	0.0044
744.087	0.0049
744.331	0.0049
744.576	0.0053
744.82	0.0039
745.064	0.004
745.308	0.0034
745.552	0.0035
745.796	0.0039
746.04	0.0033
746.284	0.0023
746.528	0.0012
746.771	0.0016
747.015	0.0012
747.259	0.001
747.502	0.0009
747.746	0.002
747.989	0.0027
748.233	0.003
748.476	0.0037
748.719	0.004
748.963	0.0042
749.206	0.0034
749.449	0.0039
749.692	0.0028
749.935	0.0038
750.178	0.0027
750.421	0.0033
750.664	0.0042
750.906	0.0038
751.149	0.0029
751.392	0.0033
751.635	0.0004
751.877	0.0009
752.12	0.0003
752.362	0.0009
752.604	0.0005
752.847	0.0015
753.089	0.0014
753.331	0.0019
753.573	0.0015
753.816	0.0025
754.058	0.0031
754.3	0.0029
754.542	0.0042
754.783	0.0033
755.025	0.0028
755.267	0.0018
755.509	0.0006
755.75	0.0014
755.992	0.0021
756.234	0.0009
756.475	0.0001
756.716	-0.0004
756.958	-0.0001
757.199	-0.0002
757.44	0.001
757.682	0.0011
757.923	0.0005
758.164	0.0001
758.405	-0.0002
758.646	0.0006
758.887	0.0002
759.128	0.0006
759.369	0
759.609	-0.0009
759.85	-0.0012
760.091	0.0006
760.331	-0.0005
760.572	-0.0005
760.812	-0.0015
761.053	-0.0009
761.293	-0.0006
761.533	-0.0001
761.774	0.0004
762.014	0.0005
762.254	0.0004
762.494	-0.0007
762.734	-0.001
762.974	-0.0012
763.214	-0.0003
763.454	-0.0011
763.694	-0.0008
763.933	-0.0006
764.173	0.0001
764.413	-0.0003
764.652	-0.0003
764.892	0.0004
765.131	0.0008
765.371	0.0011
765.61	0.0026
765.849	0.0014
766.089	0.0025
766.328	0.0036
766.567	0.0029
766.806	0.0036
767.045	0.0036
767.284	0.0033
767.523	0.0038
767.762	0.0035
768.001	0.0031
768.239	0.0024
768.478	0.0016
768.717	0.0023
768.955	0.0021
769.194	0.0014
769.432	0.0017
769.671	0.0026
769.909	0.002
770.148	0.0021
770.386	0.0023
770.624	0.0022
770.862	0.002
771.1	0.0016
771.338	0.0012
771.576	0.002
771.814	0.0019
772.052	0.002
772.29	0.0028
772.528	0.0029
772.765	0.0027
773.003	0.0028
773.24	0.0037
773.478	0.0024
773.716	0.0038
773.953	0.0035
774.19	0.0045
774.428	0.0036
774.665	0.004
774.902	0.0046
775.139	0.0022
775.376	0.003
775.613	0.0024
775.85	0.0031
776.087	0.0022
776.324	0.003
776.561	0.0038
776.798	0.0046
777.034	0.0061
777.271	0.0068
777.508	0.0071
777.744	0.0066
777.981	0.0057
778.217	0.0056
778.454	0.0051
778.69	0.004
778.926	0.0043
779.162	0.0047
779.399	0.0039
779.635	0.0041
779.871	0.0033
780.107	0.0039
780.343	0.0037
780.579	0.0045
780.814	0.0043
781.05	0.0045
781.286	0.0041
781.522	0.004
781.757	0.0057
781.993	0.0052
782.228	0.0054
782.464	0.0049
782.699	0.0037
782.934	0.0031
783.17	0.0032
783.405	0.0027
783.64	0.0028
783.875	0.0034
784.11	0.0036
784.345	0.0036
784.58	0.0033
784.815	0.0027
785.05	0.0035
785.285	0.0018
785.52	0.001
785.754	0.0025
785.989	0.0015
786.223	0.0013
786.458	0.0013
786.692	0.0009
786.927	0.0001
787.161	0.001
787.396	0
787.63	-0.0009
787.864	-0.0013
788.098	-0.0001
788.332	0.0001
788.566	-0.0005
788.8	0
789.034	0.0002
789.268	0.0017
789.502	0.0018
789.736	0.0021
789.969	0.0025
790.203	0.0026
790.437	0.0028
790.67	0.002
790.904	0.0024
791.137	0.0009
791.37	-0
791.604	-0.0004
791.837	-0.0001
792.07	-0.0001
792.303	0.0005
792.537	0.0004
792.77	-0.0003
793.003	-0.0004
793.236	-0.0015
793.469	-0.0015
793.701	-0.0002
793.934	-0.0007
794.167	-0.0005
794.4	-0.0002
794.632	0.0003
794.865	-0.0007
795.097	-0.0001
795.33	0.0015
795.562	0.0003
795.795	0.0008
796.027	0.0003
796.259	0.0008
796.491	0.0001
796.724	0.0003
796.956	0.0019
797.188	0.0018
797.42	0.0008
797.652	0.0013
797.883	-0
798.115	0.0005
798.347	-0.0003
798.579	-0.0014
798.81	-0.0013
799.042	-0.0023
799.274	-0.0018
799.505	-0.002
799.737	-0.0025
799.968	-0.0017
800.199	-0.0014
800.431	-0.0017
800.662	-0.0003
800.893	0.0003
801.124	0.0006
801.355	0.0007
801.586	0.001
801.817	0.0007
802.048	0.0002
802.279	0.001
802.51	0.001
802.741	-0.0004
802.971	0.0004
803.202	-0.0012
803.433	-0.0015
803.663	-0.0014
803.894	-0.0003
804.124	-0.0005
804.354	-0.0011
804.585	-0.0013
804.815	-0.0009
805.045	-0.0006
805.275	-0.0017
805.506	-0.0653
805.736	0.0826
805.966	-0.0624
806.196	0.0477
