Data from 03 0.2 mM BQDS 0.4 mM K2Cr2O7 1 M H2SO4 5 min_Absorbance_21-12-44-454.txt Node
Date: Tue Dec 07 21:12:44 EST 2021
User: kwabilab-user
Spectrometer: HDX00518
Trigger mode: 0
Integration Time (sec): 5.000000E-2
Scans to average: 50
Nonlinearity correction enabled: false
Boxcar width: 0
Storing dark spectrum: false
XAxis mode: Wavelengths
Number of Pixels in Spectrum: 2068
>>>>>Begin Spectral Data<<<<<
195.27	0.1315
195.642	0.1413
196.014	0.1299
196.386	0.0515
196.758	0.0443
197.129	0.0501
197.501	0.0721
197.872	0.1158
198.244	0.1316
198.615	0.1357
198.986	0.1341
199.357	0.1278
199.728	0.1285
200.099	0.119
200.47	0.1294
200.841	0.1179
201.212	0.1354
201.582	0.1269
201.953	0.1308
202.323	0.1386
202.694	0.1352
203.064	0.1544
203.434	0.1233
203.804	0.1504
204.174	0.1289
204.544	0.1404
204.914	0.1503
205.284	0.1457
205.653	0.138
206.023	0.1471
206.393	0.1526
206.762	0.1459
207.131	0.1599
207.501	0.1543
207.87	0.1579
208.239	0.1584
208.608	0.1546
208.977	0.16
209.346	0.1624
209.715	0.1694
210.083	0.1696
210.452	0.1639
210.82	0.1582
211.189	0.1822
211.557	0.1696
211.925	0.1941
212.294	0.195
212.662	0.2095
213.03	0.1984
213.398	0.1773
213.766	0.219
214.133	0.2158
214.501	0.2283
214.869	0.2288
215.236	0.2728
215.604	0.2664
215.971	0.257
216.338	0.2903
216.705	0.3265
217.072	0.3464
217.439	0.3414
217.806	0.3881
218.173	0.3995
218.54	0.4193
218.907	0.4749
219.273	0.5271
219.64	0.5514
220.006	0.5883
220.373	0.6203
220.739	0.653
221.105	0.6884
221.471	0.7195
221.837	0.7727
222.203	0.8028
222.569	0.8251
222.935	0.87
223.3	0.8789
223.666	0.93
224.031	0.9438
224.397	0.9687
224.762	0.9852
225.127	1.0045
225.493	1.0263
225.858	1.03
226.223	1.0469
226.588	1.0493
226.952	1.0468
227.317	1.0684
227.682	1.0592
228.046	1.0611
228.411	1.0672
228.775	1.0574
229.14	1.052
229.504	1.0499
229.868	1.0417
230.232	1.0349
230.596	1.0232
230.96	1.0288
231.324	1.0111
231.688	1.0033
232.052	1.0017
232.415	0.987
232.779	0.981
233.142	0.9709
233.505	0.965
233.869	0.9555
234.232	0.9487
234.595	0.9313
234.958	0.9277
235.321	0.9152
235.684	0.9047
236.047	0.8948
236.409	0.885
236.772	0.88
237.134	0.8719
237.497	0.8589
237.859	0.8553
238.222	0.8462
238.584	0.8367
238.946	0.8246
239.308	0.821
239.67	0.8132
240.032	0.8071
240.393	0.7994
240.755	0.7923
241.117	0.7865
241.478	0.7803
241.84	0.7732
242.201	0.7689
242.562	0.7638
242.924	0.7567
243.285	0.7521
243.646	0.7461
244.007	0.7441
244.368	0.7374
244.728	0.7346
245.089	0.73
245.45	0.7288
245.81	0.7251
246.171	0.7203
246.531	0.7131
246.891	0.7105
247.252	0.7086
247.612	0.706
247.972	0.7036
248.332	0.7025
248.692	0.7006
249.051	0.6986
249.411	0.6979
249.771	0.6921
250.13	0.6916
250.49	0.6914
250.849	0.691
251.208	0.686
251.568	0.6846
251.927	0.6832
252.286	0.6842
252.645	0.6829
253.004	0.6821
253.363	0.6777
253.721	0.6794
254.08	0.6803
254.439	0.6731
254.797	0.6742
255.155	0.6745
255.514	0.6761
255.872	0.6732
256.23	0.6713
256.588	0.6712
256.946	0.6713
257.304	0.6689
257.662	0.6702
258.02	0.6692
258.377	0.6682
258.735	0.6669
259.093	0.6671
259.45	0.6647
259.807	0.6644
260.165	0.6633
260.522	0.6626
260.879	0.6607
261.236	0.6597
261.593	0.6604
261.95	0.6575
262.306	0.6565
262.663	0.6564
263.02	0.6554
263.376	0.6543
263.733	0.6506
264.089	0.65
264.445	0.6503
264.802	0.6491
265.158	0.6441
265.514	0.6439
265.87	0.6423
266.226	0.6389
266.581	0.6354
266.937	0.633
267.293	0.6326
267.648	0.6307
268.004	0.6271
268.359	0.6279
268.714	0.623
269.07	0.6208
269.425	0.6182
269.78	0.6154
270.135	0.6122
270.49	0.6108
270.844	0.6072
271.199	0.6051
271.554	0.6031
271.908	0.5995
272.263	0.5978
272.617	0.5936
272.972	0.5897
273.326	0.5855
273.68	0.5831
274.034	0.5809
274.388	0.5772
274.742	0.5721
275.096	0.5676
275.45	0.5649
275.803	0.5609
276.157	0.5565
276.51	0.5514
276.864	0.5487
277.217	0.5443
277.571	0.5395
277.924	0.535
278.277	0.5329
278.63	0.5275
278.983	0.5231
279.336	0.52
279.688	0.5148
280.041	0.5103
280.394	0.5052
280.746	0.5021
281.099	0.4961
281.451	0.4922
281.803	0.4859
282.156	0.4829
282.508	0.4781
282.86	0.4732
283.212	0.4694
283.564	0.4644
283.916	0.4593
284.267	0.4554
284.619	0.4514
284.971	0.4475
285.322	0.4421
285.673	0.4363
286.025	0.4342
286.376	0.4271
286.727	0.4232
287.078	0.419
287.429	0.4148
287.78	0.4096
288.131	0.4053
288.482	0.3998
288.833	0.3963
289.183	0.3909
289.534	0.3875
289.884	0.3819
290.235	0.3774
290.585	0.3716
290.935	0.3685
291.285	0.364
291.635	0.3602
291.985	0.355
292.335	0.3509
292.685	0.3466
293.035	0.3426
293.384	0.3374
293.734	0.3335
294.083	0.3289
294.433	0.3244
294.782	0.3199
295.131	0.3165
295.48	0.3125
295.829	0.3083
296.179	0.3046
296.527	0.2999
296.876	0.2971
297.225	0.2932
297.574	0.2892
297.922	0.2853
298.271	0.2811
298.619	0.2777
298.968	0.2744
299.316	0.2704
299.664	0.2675
300.012	0.2634
300.36	0.2598
300.708	0.2564
301.056	0.2536
301.404	0.2511
301.752	0.2472
302.099	0.2454
302.447	0.2418
302.794	0.2396
303.142	0.237
303.489	0.235
303.836	0.2317
304.183	0.23
304.531	0.227
304.878	0.2247
305.224	0.2226
305.571	0.2206
305.918	0.2185
306.265	0.2164
306.611	0.2143
306.958	0.2129
307.304	0.2112
307.651	0.21
307.997	0.2079
308.343	0.2068
308.689	0.2055
309.035	0.2047
309.381	0.2033
309.727	0.2017
310.073	0.2016
310.419	0.2
310.764	0.1993
311.11	0.1991
311.455	0.1978
311.801	0.1967
312.146	0.1966
312.491	0.196
312.837	0.1959
313.182	0.1955
313.527	0.1948
313.872	0.194
314.216	0.1947
314.561	0.1941
314.906	0.194
315.251	0.1939
315.595	0.1941
315.94	0.1939
316.284	0.1945
316.628	0.1942
316.972	0.194
317.317	0.1942
317.661	0.1953
318.005	0.1956
318.348	0.1959
318.692	0.1961
319.036	0.1969
319.38	0.1971
319.723	0.1979
320.067	0.198
320.41	0.1993
320.754	0.2001
321.097	0.2006
321.44	0.2017
321.783	0.2022
322.126	0.2029
322.469	0.2048
322.812	0.2056
323.155	0.2061
323.498	0.2072
323.84	0.209
324.183	0.2102
324.525	0.2108
324.868	0.2121
325.21	0.2136
325.552	0.2152
325.894	0.2155
326.236	0.2172
326.578	0.2182
326.92	0.2198
327.262	0.2202
327.604	0.2223
327.946	0.2241
328.287	0.2253
328.629	0.2265
328.97	0.2274
329.312	0.2297
329.653	0.2308
329.994	0.2324
330.335	0.2338
330.676	0.2346
331.017	0.2363
331.358	0.2382
331.699	0.2395
332.04	0.2421
332.38	0.2425
332.721	0.2449
333.061	0.2452
333.402	0.2477
333.742	0.2489
334.083	0.2509
334.423	0.2517
334.763	0.2525
335.103	0.2546
335.443	0.256
335.783	0.2563
336.123	0.2571
336.462	0.2597
336.802	0.2602
337.141	0.2615
337.481	0.2626
337.82	0.2635
338.16	0.2648
338.499	0.266
338.838	0.2669
339.177	0.2691
339.516	0.2696
339.855	0.2706
340.194	0.2723
340.533	0.2735
340.872	0.2738
341.21	0.2757
341.549	0.276
341.887	0.2773
342.226	0.2775
342.564	0.2769
342.902	0.2789
343.24	0.2786
343.578	0.2792
343.916	0.2795
344.254	0.2796
344.592	0.2796
344.93	0.2813
345.268	0.2815
345.605	0.281
345.943	0.2816
346.28	0.281
346.618	0.2816
346.955	0.2824
347.292	0.2822
347.629	0.2829
347.966	0.2829
348.303	0.2826
348.64	0.2819
348.977	0.2824
349.314	0.283
349.65	0.2828
349.987	0.2826
350.324	0.2822
350.66	0.2817
350.996	0.2816
351.333	0.2814
351.669	0.2801
352.005	0.2797
352.341	0.2789
352.677	0.2779
353.013	0.2766
353.349	0.2762
353.685	0.2749
354.02	0.2737
354.356	0.2724
354.691	0.2707
355.027	0.2706
355.362	0.269
355.697	0.2676
356.033	0.2666
356.368	0.2655
356.703	0.2642
357.038	0.2642
357.373	0.2624
357.707	0.2629
358.042	0.261
358.377	0.2603
358.711	0.2587
359.046	0.2574
359.38	0.2563
359.715	0.2553
360.049	0.2536
360.383	0.2526
360.717	0.2507
361.051	0.2488
361.385	0.2483
361.719	0.2457
362.053	0.2446
362.387	0.2422
362.72	0.24
363.054	0.2378
363.387	0.2365
363.721	0.235
364.054	0.2318
364.387	0.2304
364.721	0.2283
365.054	0.2265
365.387	0.2251
365.72	0.2222
366.053	0.2214
366.385	0.2189
366.718	0.2177
367.051	0.216
367.383	0.2142
367.716	0.2129
368.048	0.2112
368.381	0.2097
368.713	0.2078
369.045	0.2064
369.377	0.205
369.709	0.2036
370.041	0.2017
370.373	0.2003
370.705	0.199
371.037	0.1967
371.368	0.195
371.7	0.1937
372.031	0.1913
372.363	0.1891
372.694	0.1875
373.025	0.1848
373.356	0.1831
373.688	0.181
374.019	0.178
374.35	0.1757
374.68	0.1741
375.011	0.1712
375.342	0.1692
375.673	0.1672
376.003	0.1646
376.334	0.1633
376.664	0.1611
376.995	0.1589
377.325	0.1577
377.655	0.1561
377.985	0.1539
378.315	0.1526
378.645	0.1509
378.975	0.1489
379.305	0.1481
379.635	0.1474
379.964	0.1452
380.294	0.1441
380.623	0.1424
380.953	0.1409
381.282	0.1398
381.611	0.1377
381.941	0.1359
382.27	0.1346
382.599	0.1331
382.928	0.1309
383.257	0.1299
383.585	0.1287
383.914	0.1267
384.243	0.1247
384.571	0.1227
384.9	0.1208
385.228	0.1189
385.557	0.1172
385.885	0.1159
386.213	0.1135
386.541	0.1113
386.869	0.1096
387.197	0.1074
387.525	0.1058
387.853	0.1044
388.181	0.1033
388.508	0.1018
388.836	0.101
389.164	0.0989
389.491	0.0971
389.818	0.0963
390.146	0.0947
390.473	0.0933
390.8	0.0925
391.127	0.0904
391.454	0.0898
391.781	0.0883
392.108	0.0871
392.435	0.0853
392.761	0.0846
393.088	0.0838
393.415	0.0832
393.741	0.0824
394.067	0.0812
394.394	0.0804
394.72	0.0792
395.046	0.0778
395.372	0.0766
395.698	0.0754
396.024	0.0751
396.35	0.0733
396.676	0.0731
397.001	0.0724
397.327	0.0708
397.653	0.0692
397.978	0.0682
398.303	0.0673
398.629	0.0667
398.954	0.0663
399.279	0.0653
399.604	0.0646
399.929	0.0638
400.254	0.0628
400.579	0.0627
400.904	0.0613
401.229	0.0608
401.553	0.0593
401.878	0.0584
402.202	0.0585
402.527	0.058
402.851	0.0577
403.175	0.0571
403.5	0.0565
403.824	0.0562
404.148	0.0558
404.472	0.0549
404.796	0.054
405.119	0.0538
405.443	0.0536
405.767	0.0534
406.09	0.0531
406.414	0.0527
406.737	0.0517
407.061	0.0521
407.384	0.0523
407.707	0.0505
408.03	0.0518
408.353	0.0514
408.676	0.051
408.999	0.0505
409.322	0.0505
409.645	0.0507
409.968	0.0494
410.29	0.05
410.613	0.0488
410.935	0.0493
411.258	0.0499
411.58	0.0491
411.902	0.0491
412.224	0.0489
412.546	0.0486
412.868	0.0481
413.19	0.0488
413.512	0.0485
413.834	0.0488
414.156	0.0492
414.477	0.0484
414.799	0.0477
415.121	0.0489
415.442	0.0482
415.763	0.0488
416.085	0.0482
416.406	0.0482
416.727	0.0482
417.048	0.0478
417.369	0.0477
417.69	0.0476
418.011	0.0478
418.331	0.0476
418.652	0.0478
418.973	0.0485
419.293	0.0482
419.614	0.0486
419.934	0.0477
420.254	0.0485
420.574	0.0479
420.895	0.0476
421.215	0.0476
421.535	0.0472
421.855	0.0476
422.174	0.0475
422.494	0.0477
422.814	0.0484
423.134	0.0481
423.453	0.0481
423.773	0.048
424.092	0.0477
424.411	0.0476
424.731	0.0484
425.05	0.048
425.369	0.0478
425.688	0.0482
426.007	0.0482
426.326	0.0487
426.644	0.0493
426.963	0.0485
427.282	0.0487
427.6	0.0485
427.919	0.0486
428.237	0.0484
428.556	0.0492
428.874	0.049
429.192	0.0484
429.51	0.0486
429.828	0.0488
430.146	0.0491
430.464	0.0493
430.782	0.0487
431.1	0.049
431.418	0.0484
431.735	0.0487
432.053	0.0491
432.37	0.0494
432.688	0.0484
433.005	0.0491
433.322	0.049
433.639	0.0486
433.957	0.0484
434.274	0.0495
434.591	0.0493
434.907	0.0495
435.224	0.0491
435.541	0.0494
435.858	0.0499
436.174	0.0492
436.491	0.0492
436.807	0.0489
437.124	0.0483
437.44	0.0485
437.756	0.0482
438.072	0.0481
438.388	0.049
438.704	0.0488
439.02	0.0486
439.336	0.0487
439.652	0.0487
439.968	0.0493
440.283	0.0483
440.599	0.0487
440.914	0.0488
441.23	0.0479
441.545	0.0481
441.86	0.0485
442.175	0.049
442.491	0.0483
442.806	0.0484
443.121	0.0482
443.435	0.0475
443.75	0.048
444.065	0.0478
444.38	0.0481
444.694	0.0479
445.009	0.048
445.323	0.0478
445.638	0.0479
445.952	0.0478
446.266	0.0473
446.58	0.0478
446.894	0.048
447.208	0.0487
447.522	0.0486
447.836	0.0461
448.15	0.0469
448.464	0.0463
448.777	0.047
449.091	0.046
449.404	0.0473
449.718	0.0469
450.031	0.0463
450.345	0.0462
450.658	0.0471
450.971	0.0462
451.284	0.0457
451.597	0.0464
451.91	0.0469
452.223	0.0455
452.535	0.0464
452.848	0.0457
453.161	0.0459
453.473	0.0466
453.786	0.0461
454.098	0.0456
454.411	0.0451
454.723	0.0446
455.035	0.0448
455.347	0.0453
455.659	0.0452
455.971	0.045
456.283	0.0445
456.595	0.0438
456.907	0.0449
457.218	0.0445
457.53	0.0448
457.841	0.0433
458.153	0.0436
458.464	0.0431
458.776	0.0428
459.087	0.0427
459.398	0.043
459.709	0.0421
460.02	0.0418
460.331	0.0422
460.642	0.0416
460.953	0.0411
461.263	0.0416
461.574	0.0417
461.885	0.0413
462.195	0.0415
462.506	0.0415
462.816	0.0409
463.126	0.0407
463.437	0.0405
463.747	0.0399
464.057	0.0399
464.367	0.0402
464.677	0.0385
464.987	0.0394
465.296	0.0391
465.606	0.0385
465.916	0.038
466.225	0.0382
466.535	0.0383
466.844	0.0383
467.154	0.0375
467.463	0.0378
467.772	0.0375
468.081	0.0369
468.39	0.037
468.699	0.036
469.008	0.0373
469.317	0.0369
469.626	0.0364
469.935	0.036
470.243	0.0359
470.552	0.0364
470.86	0.0368
471.169	0.0352
471.477	0.0357
471.785	0.0347
472.093	0.0353
472.402	0.0347
472.71	0.0348
473.018	0.0337
473.326	0.0334
473.633	0.0341
473.941	0.0336
474.249	0.0328
474.556	0.0326
474.864	0.0319
475.171	0.0322
475.479	0.0326
475.786	0.0325
476.094	0.0323
476.401	0.032
476.708	0.0314
477.015	0.0321
477.322	0.0314
477.629	0.0311
477.936	0.0302
478.242	0.0307
478.549	0.0301
478.856	0.0298
479.162	0.031
479.469	0.0304
479.775	0.0296
480.081	0.029
480.388	0.0293
480.694	0.0288
481	0.0284
481.306	0.0279
481.612	0.0284
481.918	0.0276
482.224	0.0283
482.53	0.0275
482.835	0.0269
483.141	0.0262
483.446	0.0261
483.752	0.0262
484.057	0.0254
484.363	0.025
484.668	0.0251
484.973	0.0247
485.278	0.0243
485.583	0.0244
485.888	0.0239
486.193	0.0242
486.498	0.0239
486.803	0.0249
487.107	0.0234
487.412	0.0238
487.717	0.0229
488.021	0.0235
488.325	0.023
488.63	0.0226
488.934	0.0227
489.238	0.0232
489.542	0.0222
489.846	0.0207
490.15	0.0224
490.454	0.0215
490.758	0.022
491.062	0.0207
491.366	0.0205
491.669	0.0207
491.973	0.02
492.276	0.0205
492.58	0.0191
492.883	0.02
493.186	0.0206
493.489	0.0198
493.792	0.0203
494.096	0.0197
494.399	0.0196
494.701	0.0194
495.004	0.019
495.307	0.0187
495.61	0.0182
495.912	0.0174
496.215	0.0175
496.517	0.018
496.82	0.0172
497.122	0.0175
497.424	0.0165
497.727	0.0171
498.029	0.0171
498.331	0.0171
498.633	0.0165
498.935	0.0161
499.237	0.0163
499.538	0.0156
499.84	0.0155
500.142	0.017
500.443	0.0153
500.745	0.0152
501.046	0.0156
501.348	0.0147
501.649	0.0151
501.95	0.0147
502.251	0.0149
502.552	0.0135
502.853	0.0144
503.154	0.0137
503.455	0.0122
503.756	0.0138
504.057	0.0138
504.357	0.0129
504.658	0.0132
504.958	0.0128
505.259	0.0141
505.559	0.013
505.859	0.0122
506.16	0.0127
506.46	0.0126
506.76	0.0126
507.06	0.0115
507.36	0.0119
507.66	0.0129
507.96	0.0121
508.259	0.0111
508.559	0.0105
508.859	0.0112
509.158	0.0104
509.457	0.0111
509.757	0.012
510.056	0.0121
510.355	0.0104
510.655	0.0104
510.954	0.0102
511.253	0.0104
511.552	0.0109
511.851	0.0099
512.149	0.0093
512.448	0.01
512.747	0.0105
513.045	0.0086
513.344	0.01
513.642	0.0098
513.941	0.0095
514.239	0.0084
514.537	0.0087
514.836	0.009
515.134	0.0086
515.432	0.0081
515.73	0.009
516.028	0.008
516.326	0.0087
516.623	0.0084
516.921	0.0077
517.219	0.0091
517.516	0.0083
517.814	0.0086
518.111	0.0086
518.409	0.0089
518.706	0.0078
519.003	0.0075
519.3	0.0072
519.597	0.0069
519.894	0.0076
520.191	0.0084
520.488	0.0075
520.785	0.0067
521.082	0.007
521.378	0.0071
521.675	0.0052
521.971	0.0065
522.268	0.0058
522.564	0.0064
522.861	0.0064
523.157	0.0055
523.453	0.006
523.749	0.0071
524.045	0.0071
524.341	0.0062
524.637	0.0062
524.933	0.0049
525.229	0.0058
525.524	0.0048
525.82	0.006
526.115	0.0052
526.411	0.0052
526.706	0.0054
527.002	0.0057
527.297	0.005
527.592	0.007
527.887	0.0065
528.182	0.0062
528.477	0.0062
528.772	0.0053
529.067	0.0054
529.362	0.0057
529.657	0.0057
529.951	0.0045
530.246	0.0044
530.54	0.0032
530.835	0.0035
531.129	0.0045
531.423	0.0048
531.718	0.0041
532.012	0.004
532.306	0.0042
532.6	0.004
532.894	0.0033
533.188	0.0051
533.482	0.0041
533.775	0.005
534.069	0.0033
534.363	0.0028
534.656	0.0041
534.95	0.0024
535.243	0.0035
535.536	0.004
535.83	0.005
536.123	0.0029
536.416	0.0037
536.709	0.0038
537.002	0.0038
537.295	0.0033
537.588	0.0046
537.881	0.0038
538.173	0.0034
538.466	0.0033
538.759	0.0026
539.051	0.0031
539.344	0.0031
539.636	0.0035
539.928	0.0027
540.22	0.0034
540.513	0.0037
540.805	0.002
541.097	0.0035
541.389	0.0032
541.681	0.0024
541.972	0.0034
542.264	0.0021
542.556	0.0027
542.847	0.0034
543.139	0.0043
543.431	0.0041
543.722	0.0032
544.013	0.0041
544.305	0.0047
544.596	0.0051
544.887	0.0039
545.178	0.0036
545.469	0.0037
545.76	0.003
546.051	0.0042
546.342	0.0045
546.632	0.002
546.923	0.0033
547.214	0.0027
547.504	0.0033
547.795	0.0038
548.085	0.0037
548.375	0.0031
548.666	0.0032
548.956	0.0028
549.246	0.0038
549.536	0.0025
549.826	0.0039
550.116	0.0037
550.406	0.0033
550.695	0.0036
550.985	0.0029
551.275	0.0031
551.564	0.0023
551.854	0.0036
552.143	0.004
552.433	0.004
552.722	0.0031
553.011	0.0038
553.3	0.0035
553.589	0.0038
553.879	0.0029
554.167	0.0037
554.456	0.0034
554.745	0.0021
555.034	0.0019
555.323	0.0019
555.611	0.0018
555.9	0.0037
556.188	0.0024
556.477	0.0028
556.765	0.0029
557.053	0.0022
557.342	0.0025
557.63	0.0036
557.918	0.0029
558.206	0.002
558.494	0.0031
558.782	0.003
559.069	0.0027
559.357	0.003
559.645	0.0021
559.932	0.0018
560.22	0.003
560.507	0.0029
560.795	0.0032
561.082	0.002
561.37	0.002
561.657	0.0033
561.944	0.003
562.231	0.0022
562.518	0.0021
562.805	0.0021
563.092	0.0025
563.379	0.0028
563.665	0.0027
563.952	0.0034
564.239	0.0028
564.525	0.0034
564.811	0.0048
565.098	0.0034
565.384	0.003
565.67	0.0035
565.957	0.0039
566.243	0.0024
566.529	0.0035
566.815	0.0047
567.101	0.0027
567.387	0.0025
567.672	0.0029
567.958	0.0031
568.244	0.0033
568.529	0.0027
568.815	0.0022
569.1	0.0029
569.386	0.003
569.671	0.0032
569.956	0.0025
570.242	0.0025
570.527	0.0036
570.812	0.0033
571.097	0.0032
571.382	0.0028
571.666	0.0033
571.951	0.0026
572.236	0.0034
572.521	0.0027
572.805	0.0029
573.09	0.0029
573.374	0.0028
573.659	0.0023
573.943	0.003
574.227	0.0026
574.511	0.0034
574.795	0.0031
575.079	0.0025
575.363	0.0024
575.647	0.0038
575.931	0.0042
576.215	0.0027
576.499	0.0027
576.782	0.0037
577.066	0.0027
577.349	0.0026
577.633	0.0034
577.916	0.0031
578.2	0.0042
578.483	0.0044
578.766	0.0033
579.049	0.0045
579.332	0.003
579.615	0.0021
579.898	0.0034
580.181	0.0033
580.464	0.002
580.746	0.0014
581.029	0.0023
581.312	0.0018
581.594	0.0024
581.877	0.0035
582.159	0.0041
582.441	0.0034
582.724	0.003
583.006	0.003
583.288	0.0018
583.57	0.0028
583.852	0.0023
584.134	0.0013
584.416	0.0026
584.697	0.002
584.979	0.0022
585.261	0.0032
585.542	0.0034
585.824	0.0028
586.105	0.0024
586.387	0.0023
586.668	0.0023
586.949	0.0023
587.231	0.0017
587.512	0.0026
587.793	0.0021
588.074	0.0033
588.355	0.0026
588.636	0.0038
588.916	0.003
589.197	0.0037
589.478	0.0027
589.758	0.0025
590.039	0.0028
590.319	0.003
590.6	0.0021
590.88	0.0024
591.16	0.0031
591.441	0.0026
591.721	0.0024
592.001	0.0028
592.281	0.0027
592.561	0.0021
592.841	0.0026
593.12	0.0028
593.4	0.002
593.68	0.0022
593.959	0.0024
594.239	0.004
594.518	0.0025
594.798	0.0022
595.077	0.0027
595.356	0.0024
595.636	0.0026
595.915	0.0029
596.194	0.003
596.473	0.0026
596.752	0.0024
597.031	0.0015
597.31	0.0016
597.588	0.0012
597.867	0.0013
598.146	0.0026
598.424	0.0017
598.703	0.0021
598.981	0.0018
599.259	0.0031
599.538	0.0033
599.816	0.0025
600.094	0.0021
600.372	0.0028
600.65	0.0031
600.928	0.0033
601.206	0.0028
601.484	0.0026
601.762	0.0039
602.04	0.0023
602.317	0.0019
602.595	0.0029
602.872	0.0022
603.15	0.0014
603.427	0.0011
603.704	0.001
603.982	0.0018
604.259	0.0013
604.536	0.0016
604.813	0.0017
605.09	0.0014
605.367	0.0021
605.644	0.0018
605.921	0.002
606.197	0.0019
606.474	0.002
606.751	0.0025
607.027	0.002
607.304	0.0016
607.58	0.0021
607.856	0.0017
608.133	0.0029
608.409	0.0029
608.685	0.0014
608.961	0.0026
609.237	0.0023
609.513	0.0019
609.789	0.0018
610.065	0.0004
610.341	0.0014
610.616	0.0018
610.892	0.0025
611.167	0.003
611.443	0.0023
611.718	0.002
611.994	0.0022
612.269	0.0024
612.544	0.0018
612.819	0.0013
613.095	0.0026
613.37	0.0021
613.645	0.0018
613.919	0.0019
614.194	0.0013
614.469	0.0008
614.744	0
615.019	0.0009
615.293	0.0008
615.568	0.0006
615.842	0.0012
616.116	0.0004
616.391	-0.0002
616.665	0.0019
616.939	0.001
617.213	0.0015
617.488	0.0008
617.762	0.0006
618.035	0.0006
618.309	0.0009
618.583	0.0006
618.857	0.0015
619.131	0.0015
619.404	0.0007
619.678	0.0007
619.951	-0.0007
620.225	0.0004
620.498	0.001
620.771	-0.0001
621.045	0.0018
621.318	0.0011
621.591	0.0006
621.864	0.0001
622.137	0.0008
622.41	0.0012
622.683	0.0007
622.956	0.001
623.228	0.0016
623.501	0.0014
623.774	0.0024
624.046	0.0012
624.319	0.0013
624.591	-0.0006
624.863	0.0013
625.136	0.0013
625.408	0.001
625.68	0.0007
625.952	0.0012
626.224	0.0008
626.496	0.0005
626.768	-0.0002
627.04	-0
627.311	0.0002
627.583	0.001
627.855	0.0009
628.126	0.0006
628.398	0.0019
628.669	0.0005
628.941	0.0003
629.212	-0.0004
629.483	0.0002
629.755	-0
630.026	-0.0008
630.297	-0.0017
630.568	-0.0014
630.839	-0.0016
631.11	-0.0019
631.38	-0.0018
631.651	-0.0014
631.922	-0.0025
632.192	-0.0031
632.463	-0.0019
632.733	-0.0011
633.004	-0.0005
633.274	-0.0013
633.545	0.0001
633.815	0.0013
634.085	0.0018
634.355	0
634.625	0.0017
634.895	0.0008
635.165	-0.0016
635.435	-0
635.705	0.0011
635.974	-0.0009
636.244	0.0008
636.514	0.0001
636.783	0.0008
637.053	0.0005
637.322	-0.0007
637.591	0.0005
637.861	0.0005
638.13	0.0012
638.399	0.0002
638.668	0.0009
638.937	-0.0006
639.206	0.0007
639.475	0.0002
639.744	-0.0001
640.013	0.0008
640.281	0.0017
640.55	0.0012
640.819	0.0007
641.087	0.0018
641.356	0.0005
641.624	0.0012
641.892	0.0003
642.161	0.001
642.429	0.0014
642.697	0.0008
642.965	0.0017
643.233	0.0016
643.501	-0.0007
643.769	0.0002
644.037	-0.0006
644.305	0
644.572	-0.0013
644.84	-0.0022
645.108	-0.0008
645.375	-0.0015
645.643	-0.0012
645.91	-0.0023
646.177	0.0008
646.445	0.0021
646.712	0.0025
646.979	0.0027
647.246	0.0026
647.513	0.003
647.78	0.0014
648.047	0.0028
648.314	0.0017
648.58	0.0012
648.847	0.0004
649.114	-0.0011
649.38	-0.0009
649.647	-0.0001
649.913	-0.0005
650.18	-0.0005
650.446	0.0003
650.712	0.0002
650.978	-0
651.245	0.0008
651.511	0.0012
651.777	0.0007
652.043	0.0013
652.309	0.0017
652.574	0.0023
652.84	0.0015
653.106	0.0002
653.371	-0.0002
653.637	0.0005
653.903	0.0016
654.168	0.0016
654.433	0.0008
654.699	0.0016
654.964	0.0014
655.229	0.0011
655.494	-0.0001
655.759	-0.002
656.024	0.001
656.289	-0
656.554	0.0024
656.819	0.0008
657.084	0.0015
657.349	0.0013
657.613	0.0014
657.878	0.0013
658.142	0.0019
658.407	0.0022
658.671	0.0011
658.936	0.0006
659.2	0.0001
659.464	0.0003
659.728	-0.0004
659.992	0.0006
660.256	-0
660.52	-0.0016
660.784	-0.0017
661.048	-0.0018
661.312	-0.002
661.575	-0.0033
661.839	-0.003
662.103	-0.0028
662.366	-0.0035
662.63	-0.0025
662.893	-0.0017
663.156	-0.0023
663.42	-0.0017
663.683	-0.0012
663.946	-0.0003
664.209	0.0016
664.472	0.0007
664.735	0.001
664.998	0.0008
665.261	-0.0001
665.524	0
665.786	-0.0001
666.049	0.0007
666.312	-0.0009
666.574	0.0001
666.837	-0.0014
667.099	-0.0023
667.361	-0.0017
667.624	-0.0013
667.886	-0.0016
668.148	-0.0012
668.41	0.0001
668.672	-0.0005
668.934	-0.0001
669.196	-0.001
669.458	0.0003
669.72	0.0002
669.982	0.0005
670.243	0.0007
670.505	0.0003
670.766	0.0004
671.028	-0
671.289	-0.0005
671.551	-0.0007
671.812	-0.0015
672.073	0.0004
672.334	-0.0004
672.596	0.0007
672.857	-0.0003
673.118	-0.0012
673.379	-0.0016
673.639	-0.0021
673.9	-0.0016
674.161	-0.0033
674.422	-0.0039
674.682	-0.0039
674.943	-0.0038
675.203	-0.0027
675.464	-0.0019
675.724	-0.0009
675.985	-0.0011
676.245	-0.0003
676.505	0
676.765	0
677.025	0.0004
677.285	-0.0009
677.545	0.0005
677.805	0.0006
678.065	0.0015
678.325	0.0014
678.585	0.0013
678.844	0.0003
679.104	0.0006
679.363	0.0005
679.623	0.002
679.882	0.0025
680.142	0.002
680.401	0.0023
680.66	0.0024
680.919	0.0021
681.178	0.002
681.437	0.0018
681.696	0.0015
681.955	0.0018
682.214	0.0027
682.473	0.0028
682.732	0.0003
682.99	0.0004
683.249	0.0017
683.508	0.0012
683.766	0.0019
684.024	0.0019
684.283	0.0024
684.541	0.0018
684.799	0.002
685.058	0.0009
685.316	0.0003
685.574	0.0021
685.832	0.0021
686.09	0.0026
686.348	0.0023
686.606	0.0022
686.863	0.0017
687.121	0.0017
687.379	0.002
687.636	0.0023
687.894	0.002
688.151	0.0038
688.409	0.0032
688.666	0.0018
688.923	0.0021
689.181	0.0017
689.438	0.001
689.695	0.0013
689.952	-0.0003
690.209	0.0007
690.466	0.0004
690.723	0.0017
690.979	0.0011
691.236	0.0014
691.493	0.0011
691.75	0.0014
692.006	0.0022
692.263	0.0013
692.519	0.0008
692.775	-0.0003
693.032	-0.0009
693.288	0
693.544	0.0012
693.8	0.0004
694.056	0.0005
694.313	-0
694.568	0.0001
694.824	0.0007
695.08	0.0013
695.336	0.0014
695.592	0.0009
695.847	0.002
696.103	0.0013
696.359	0.0012
696.614	0.0003
696.869	-0.0003
697.125	-0.0005
697.38	0.0002
697.635	-0.001
697.891	-0.0005
698.146	-0.0005
698.401	0.0001
698.656	-0.0003
698.911	0.0003
699.166	0.0003
699.42	0
699.675	0.0001
699.93	-0.0004
700.185	-0.0002
700.439	0.0013
700.694	-0.0007
700.948	0.0005
701.203	0.0012
701.457	0.0004
701.711	0.0003
701.965	-0.0019
702.22	-0.0018
702.474	-0.001
702.728	-0.002
702.982	-0.0022
703.236	-0.0012
703.49	-0.0022
703.743	-0.0013
703.997	-0.0016
704.251	-0.001
704.504	-0.001
704.758	-0.0017
705.012	-0.0012
705.265	-0.0013
705.518	-0.0015
705.772	-0.0022
706.025	-0.0017
706.278	-0.002
706.531	-0.0017
706.785	-0.0028
707.038	-0.0009
707.291	-0.0006
707.543	-0.0012
707.796	-0.001
708.049	-0.0014
708.302	-0.0013
708.555	-0.0013
708.807	-0.0004
709.06	-0.0017
709.312	-0.0032
709.565	-0.0029
709.817	-0.0035
710.069	-0.0026
710.322	-0.0012
710.574	-0.0016
710.826	-0.0014
711.078	-0.0006
711.33	-0.0008
711.582	-0.0011
711.834	0.0002
712.086	0.0005
712.338	0.0012
712.59	0.0014
712.841	0.0015
713.093	0.0011
713.344	0.0006
713.596	0.0006
713.847	0.0012
714.099	0.0009
714.35	0.0019
714.601	0.0014
714.853	0.0028
715.104	0.0029
715.355	0.0005
715.606	0.0021
715.857	0.0014
716.108	0.0021
716.359	0.0014
716.609	0.0014
716.86	0.0003
717.111	0.0001
717.361	-0.001
717.612	-0.0004
717.863	-0.0014
718.113	-0.0012
718.363	-0.0015
718.614	-0.0002
718.864	-0.0012
719.114	-0.0004
719.364	-0.0009
719.614	-0.0016
719.865	-0.0024
720.114	-0.0017
720.364	-0.0014
720.614	-0.0006
720.864	0.0009
721.114	0.0004
721.364	0.0014
721.613	0.0022
721.863	0.0029
722.112	0.0019
722.362	0.0019
722.611	0.0018
722.86	0.0012
723.11	-0.0002
723.359	0.0008
723.608	0.0017
723.857	0.0019
724.106	0.0034
724.355	0.0037
724.604	0.0029
724.853	0.0022
725.102	0.0016
725.351	0.001
725.599	0.0005
725.848	0.0012
726.097	-0
726.345	-0.0001
726.594	0.0001
726.842	-0.0004
727.09	-0.0003
727.339	-0.0002
727.587	-0.002
727.835	-0.0017
728.083	-0.0019
728.331	-0.0016
728.579	-0.0026
728.827	-0.0018
729.075	-0.0014
729.323	-0.0002
729.571	0.0003
729.818	0.0005
730.066	0.0013
730.314	0.0007
730.561	-0.0002
730.809	-0.0017
731.056	-0.001
731.303	-0.0004
731.551	-0.0005
731.798	-0.0007
732.045	-0.0004
732.292	-0.0007
732.539	-0.0005
732.786	0.0003
733.033	0.0003
733.28	0.0011
733.527	0.0025
733.774	0.0008
734.021	0.0023
734.267	0.0022
734.514	0.0021
734.76	0.0022
735.007	0.0032
735.253	0.0034
735.5	0.0034
735.746	0.0034
735.992	0.0036
736.238	0.0038
736.485	0.0043
736.731	0.0033
736.977	0.0028
737.223	0.0026
737.469	0.0037
737.715	0.0038
737.96	0.005
738.206	0.0047
738.452	0.0065
738.697	0.0058
738.943	0.0058
739.189	0.0042
739.434	0.0018
739.679	0.0027
739.925	0.0019
740.17	0.0009
740.415	0.001
740.66	0.0021
740.906	0.0021
741.151	0.0023
741.396	0.002
741.641	0.0033
741.886	0.0043
742.13	0.004
742.375	0.0046
742.62	0.0052
742.865	0.0043
743.109	0.0037
743.354	0.0033
743.598	0.003
743.843	0.003
744.087	0.0025
744.331	0.0031
744.576	0.0028
744.82	0.0033
745.064	0.0028
745.308	0.0015
745.552	0.0013
745.796	0.0017
746.04	0.0014
746.284	0.0004
746.528	-0.001
746.771	-0.0003
747.015	0
747.259	-0.0007
747.502	-0
747.746	0.0009
747.989	-0.0002
748.233	0.0013
748.476	0.0014
748.719	0.002
748.963	0.0032
749.206	0.0027
749.449	0.0034
749.692	0.0022
749.935	0.0042
750.178	0.0025
750.421	0.003
750.664	0.0022
750.906	0.0029
751.149	0.0008
751.392	0.001
751.635	-0.001
751.877	-0.0017
752.12	-0.0017
752.362	-0.001
752.604	-0.0019
752.847	-0.0015
753.089	0.0002
753.331	-0.0002
753.573	0.0003
753.816	0.0016
754.058	0.0027
754.3	0.0027
754.542	0.0028
754.783	0.0019
755.025	0.0021
755.267	0.0006
755.509	-0.0001
755.75	0.0005
755.992	0.0013
756.234	0.0001
756.475	-0.0012
756.716	-0.0007
756.958	-0.0005
757.199	-0.0004
757.44	0.0009
757.682	0.0001
757.923	-0.0002
758.164	-0.0002
758.405	-0.0019
758.646	-0.0007
758.887	-0.001
759.128	-0.001
759.369	-0.0019
759.609	-0.0019
759.85	-0.0014
760.091	-0.0005
760.331	-0.0013
760.572	-0.0018
760.812	-0.0016
761.053	-0.0008
761.293	-0.0009
761.533	0
761.774	0
762.014	-0.0005
762.254	-0.0007
762.494	-0.0013
762.734	-0.0008
762.974	-0.0013
763.214	-0.0018
763.454	-0.0023
763.694	-0.0022
763.933	-0.0022
764.173	-0.0011
764.413	-0.0018
764.652	-0.0008
764.892	0
765.131	0.0004
765.371	0.0004
765.61	0.0005
765.849	-0.0008
766.089	0.0006
766.328	0.001
766.567	0.001
766.806	0.0011
767.045	0.0012
767.284	0.0013
767.523	0.002
767.762	0.0024
768.001	0.0015
768.239	0.0016
768.478	0.0003
768.717	0.0013
768.955	0.0014
769.194	0.0009
769.432	0.0019
769.671	0.0018
769.909	0.0012
770.148	0.0017
770.386	0.0018
770.624	0.0011
770.862	0.0012
771.1	0.0006
771.338	0.0006
771.576	0.0016
771.814	0.0013
772.052	0.0007
772.29	0.0012
772.528	0.0016
772.765	0.0016
773.003	0.0018
773.24	0.0019
773.478	0.0015
773.716	0.0018
773.953	0.0011
774.19	0.0025
774.428	0.0018
774.665	0.0024
774.902	0.0023
775.139	0.0012
775.376	0.0027
775.613	0.001
775.85	0.0018
776.087	0.0011
776.324	0.0005
776.561	0.0015
776.798	0.0033
777.034	0.0043
777.271	0.0053
777.508	0.0055
777.744	0.0044
777.981	0.0039
778.217	0.0038
778.454	0.0036
778.69	0.0034
778.926	0.0036
779.162	0.0028
779.399	0.0025
779.635	0.0018
779.871	0.0019
780.107	0.0028
780.343	0.0018
780.579	0.0037
780.814	0.0025
781.05	0.0028
781.286	0.0024
781.522	0.0024
781.757	0.0045
781.993	0.0043
782.228	0.0046
782.464	0.004
782.699	0.0034
782.934	0.0028
783.17	0.0032
783.405	0.0028
783.64	0.0017
783.875	0.0027
784.11	0.0028
784.345	0.0036
784.58	0.0025
784.815	0.0023
785.05	0.0023
785.285	0.0015
785.52	0.0009
785.754	0.0012
785.989	0.001
786.223	0.0009
786.458	0.0004
786.692	0.0009
786.927	-0.0002
787.161	0.0001
787.396	-0.0003
787.63	-0.0005
787.864	-0.0015
788.098	-0.0004
788.332	-0.0008
788.566	-0.0005
788.8	-0.001
789.034	-0.0003
789.268	-0.0002
789.502	0.001
789.736	0.0005
789.969	0.0009
790.203	0.001
790.437	0.0006
790.67	0.0003
790.904	0.0001
791.137	-0.001
791.37	-0.0009
791.604	-0.0019
791.837	-0.0013
792.07	-0.0008
792.303	-0.0003
792.537	-0.0002
792.77	-0.0007
793.003	-0.0012
793.236	-0.0021
793.469	-0.0021
793.701	-0.0007
793.934	-0.0014
794.167	-0.001
794.4	-0.0004
794.632	-0.0002
794.865	-0.0011
795.097	-0.0008
795.33	0.0003
795.562	-0.0006
795.795	0.0002
796.027	-0.0002
796.259	-0.0003
796.491	-0.0007
796.724	-0.0005
796.956	-0.0001
797.188	-0.0001
797.42	-0.0011
797.652	-0.001
797.883	-0.0005
798.115	-0.0008
798.347	-0.0011
798.579	-0.0026
798.81	-0.0025
799.042	-0.0026
799.274	-0.0035
799.505	-0.0025
799.737	-0.0025
799.968	-0.003
800.199	-0.0025
800.431	-0.0031
800.662	-0.0014
800.893	-0.002
801.124	-0.0014
801.355	-0.0014
801.586	-0.0016
801.817	-0.0011
802.048	-0.0015
802.279	-0.0016
802.51	-0.0012
802.741	-0.0032
802.971	-0.003
803.202	-0.0034
803.433	-0.0031
803.663	-0.0029
803.894	-0.0014
804.124	-0.0014
804.354	-0.0014
804.585	-0.0021
804.815	-0.0012
805.045	-0.001
805.275	-0.003
805.506	-0.0466
805.736	0.1523
805.966	0.0311
806.196	0.1074
