Data from 03 0.2 mM BQDS 0.4 mM K2Cr2O7 1 M H2SO4 5 min_Absorbance_15-07-42-771.txt Node
Date: Wed Dec 08 15:07:42 EST 2021
User: kwabilab-user
Spectrometer: HDX00518
Trigger mode: 0
Integration Time (sec): 5.000000E-2
Scans to average: 50
Nonlinearity correction enabled: false
Boxcar width: 0
Storing dark spectrum: false
XAxis mode: Wavelengths
Number of Pixels in Spectrum: 2068
>>>>>Begin Spectral Data<<<<<
195.27	0.2071
195.642	0.0498
196.014	0.1299
196.386	0.1365
196.758	0.0247
197.129	0.0237
197.501	0.0448
197.872	0.0927
198.244	0.1076
198.615	0.1235
198.986	0.1109
199.357	0.1033
199.728	0.108
200.099	0.0958
200.47	0.1056
200.841	0.1029
201.212	0.1066
201.582	0.1012
201.953	0.1156
202.323	0.1033
202.694	0.1004
203.064	0.1188
203.434	0.0941
203.804	0.1261
204.174	0.1122
204.544	0.1058
204.914	0.1121
205.284	0.1106
205.653	0.1073
206.023	0.1147
206.393	0.1066
206.762	0.1281
207.131	0.1101
207.501	0.1142
207.87	0.119
208.239	0.1292
208.608	0.1122
208.977	0.1236
209.346	0.1247
209.715	0.1382
210.083	0.1344
210.452	0.1304
210.82	0.1305
211.189	0.143
211.557	0.1262
211.925	0.1355
212.294	0.1623
212.662	0.1594
213.03	0.1485
213.398	0.1559
213.766	0.1805
214.133	0.1829
214.501	0.1928
214.869	0.1828
215.236	0.2406
215.604	0.215
215.971	0.2359
216.338	0.2429
216.705	0.275
217.072	0.2849
217.439	0.2988
217.806	0.3513
218.173	0.3671
218.54	0.3875
218.907	0.4207
219.273	0.4747
219.64	0.5084
220.006	0.5513
220.373	0.591
220.739	0.5993
221.105	0.6573
221.471	0.6828
221.837	0.7201
222.203	0.7668
222.569	0.7985
222.935	0.8251
223.3	0.8456
223.666	0.8794
224.031	0.9022
224.397	0.914
224.762	0.9366
225.127	0.961
225.493	0.9803
225.858	0.9792
226.223	0.9934
226.588	1.0012
226.952	1.0004
227.317	1.0085
227.682	1.008
228.046	1.0025
228.411	1.0084
228.775	1.0051
229.14	0.9952
229.504	0.9895
229.868	0.995
230.232	0.992
230.596	0.981
230.96	0.9691
231.324	0.9649
231.688	0.9561
232.052	0.9495
232.415	0.9407
232.779	0.9329
233.142	0.9212
233.505	0.9118
233.869	0.9082
234.232	0.9025
234.595	0.8872
234.958	0.8774
235.321	0.8676
235.684	0.8571
236.047	0.8481
236.409	0.84
236.772	0.8309
237.134	0.8212
237.497	0.8127
237.859	0.8063
238.222	0.7965
238.584	0.7861
238.946	0.7772
239.308	0.7699
239.67	0.7641
240.032	0.757
240.393	0.7476
240.755	0.7392
241.117	0.7328
241.478	0.7291
241.84	0.7222
242.201	0.7112
242.562	0.7054
242.924	0.7005
243.285	0.6923
243.646	0.6873
244.007	0.682
244.368	0.677
244.728	0.6723
245.089	0.6682
245.45	0.6621
245.81	0.6575
246.171	0.6525
246.531	0.6483
246.891	0.6455
247.252	0.6411
247.612	0.6376
247.972	0.6321
248.332	0.6298
248.692	0.6251
249.051	0.6232
249.411	0.622
249.771	0.6147
250.13	0.6142
250.49	0.6101
250.849	0.6081
251.208	0.6042
251.568	0.6009
251.927	0.6009
252.286	0.5984
252.645	0.5977
253.004	0.5921
253.363	0.5898
253.721	0.5896
254.08	0.5852
254.439	0.5836
254.797	0.5829
255.155	0.5803
255.514	0.5784
255.872	0.5756
256.23	0.5735
256.588	0.5719
256.946	0.5709
257.304	0.5678
257.662	0.5672
258.02	0.5664
258.377	0.5645
258.735	0.5607
259.093	0.5595
259.45	0.5581
259.807	0.5567
260.165	0.5557
260.522	0.5536
260.879	0.5533
261.236	0.5502
261.593	0.5459
261.95	0.544
262.306	0.5437
262.663	0.5425
263.02	0.5414
263.376	0.5381
263.733	0.5356
264.089	0.5347
264.445	0.5309
264.802	0.5286
265.158	0.5267
265.514	0.526
265.87	0.5228
266.226	0.5206
266.581	0.5197
266.937	0.5169
267.293	0.5174
267.648	0.5125
268.004	0.5093
268.359	0.5076
268.714	0.5044
269.07	0.5025
269.425	0.5013
269.78	0.4981
270.135	0.496
270.49	0.4929
270.844	0.4916
271.199	0.4899
271.554	0.4861
271.908	0.4819
272.263	0.4807
272.617	0.4792
272.972	0.4754
273.326	0.4728
273.68	0.4709
274.034	0.4668
274.388	0.4634
274.742	0.4612
275.096	0.4582
275.45	0.4557
275.803	0.4519
276.157	0.4495
276.51	0.4464
276.864	0.444
277.217	0.4401
277.571	0.4358
277.924	0.4336
278.277	0.4297
278.63	0.4259
278.983	0.4218
279.336	0.4193
279.688	0.4175
280.041	0.4117
280.394	0.4095
280.746	0.4061
281.099	0.4009
281.451	0.3968
281.803	0.3948
282.156	0.3918
282.508	0.3882
282.86	0.384
283.212	0.3797
283.564	0.3762
283.916	0.3722
284.267	0.3683
284.619	0.3652
284.971	0.3619
285.322	0.3581
285.673	0.3543
286.025	0.3517
286.376	0.3477
286.727	0.343
287.078	0.3398
287.429	0.3379
287.78	0.3324
288.131	0.3283
288.482	0.3253
288.833	0.321
289.183	0.3166
289.534	0.3127
289.884	0.3089
290.235	0.3065
290.585	0.3015
290.935	0.2981
291.285	0.2942
291.635	0.2916
291.985	0.287
292.335	0.2834
292.685	0.2809
293.035	0.2766
293.384	0.2727
293.734	0.2689
294.083	0.2655
294.433	0.2617
294.782	0.2591
295.131	0.2551
295.48	0.252
295.829	0.248
296.179	0.2445
296.527	0.241
296.876	0.2382
297.225	0.2353
297.574	0.232
297.922	0.2288
298.271	0.2263
298.619	0.2218
298.968	0.2204
299.316	0.2165
299.664	0.2134
300.012	0.2109
300.36	0.2072
300.708	0.2055
301.056	0.2034
301.404	0.2005
301.752	0.198
302.099	0.1955
302.447	0.1936
302.794	0.1904
303.142	0.1887
303.489	0.1863
303.836	0.1838
304.183	0.1826
304.531	0.1808
304.878	0.1792
305.224	0.1771
305.571	0.1752
305.918	0.1734
306.265	0.172
306.611	0.1701
306.958	0.169
307.304	0.1679
307.651	0.1664
307.997	0.1651
308.343	0.1638
308.689	0.1627
309.035	0.1618
309.381	0.1613
309.727	0.1597
310.073	0.1598
310.419	0.1584
310.764	0.1577
311.11	0.1574
311.455	0.1563
311.801	0.1562
312.146	0.1553
312.491	0.1546
312.837	0.1543
313.182	0.1543
313.527	0.1539
313.872	0.1532
314.216	0.1533
314.561	0.1532
314.906	0.1534
315.251	0.1532
315.595	0.1524
315.94	0.1528
316.284	0.1529
316.628	0.1532
316.972	0.1527
317.317	0.1532
317.661	0.1534
318.005	0.1544
318.348	0.1545
318.692	0.155
319.036	0.1554
319.38	0.1553
319.723	0.1563
320.067	0.1561
320.41	0.1567
320.754	0.1574
321.097	0.1582
321.44	0.1591
321.783	0.1595
322.126	0.1603
322.469	0.1613
322.812	0.1622
323.155	0.1627
323.498	0.1641
323.84	0.1647
324.183	0.1655
324.525	0.166
324.868	0.1678
325.21	0.1689
325.552	0.1698
325.894	0.1696
326.236	0.1713
326.578	0.1727
326.92	0.1735
327.262	0.1744
327.604	0.1755
327.946	0.1767
328.287	0.1779
328.629	0.1792
328.97	0.1799
329.312	0.1807
329.653	0.1821
329.994	0.1833
330.335	0.1844
330.676	0.186
331.017	0.1859
331.358	0.1885
331.699	0.1894
332.04	0.1906
332.38	0.1909
332.721	0.1936
333.061	0.1936
333.402	0.1951
333.742	0.1968
334.083	0.1979
334.423	0.1979
334.763	0.1995
335.103	0.2011
335.443	0.2019
335.783	0.2023
336.123	0.2021
336.462	0.204
336.802	0.2051
337.141	0.2059
337.481	0.2065
337.82	0.2074
338.16	0.2082
338.499	0.2096
338.838	0.2101
339.177	0.2125
339.516	0.2128
339.855	0.2134
340.194	0.2143
340.533	0.215
340.872	0.2163
341.21	0.217
341.549	0.2176
341.887	0.2184
342.226	0.2184
342.564	0.2181
342.902	0.2194
343.24	0.219
343.578	0.2195
343.916	0.2198
344.254	0.2203
344.592	0.2204
344.93	0.2204
345.268	0.2208
345.605	0.2208
345.943	0.221
346.28	0.2209
346.618	0.2211
346.955	0.2208
347.292	0.2214
347.629	0.2218
347.966	0.2218
348.303	0.2218
348.64	0.2213
348.977	0.2209
349.314	0.2217
349.65	0.2219
349.987	0.2216
350.324	0.2204
350.66	0.2201
350.996	0.2208
351.333	0.2195
351.669	0.2187
352.005	0.2192
352.341	0.2177
352.677	0.2169
353.013	0.2162
353.349	0.2157
353.685	0.2142
354.02	0.2129
354.356	0.213
354.691	0.2113
355.027	0.211
355.362	0.2091
355.697	0.2082
356.033	0.2076
356.368	0.2068
356.703	0.2065
357.038	0.2057
357.373	0.2039
357.707	0.2038
358.042	0.2026
358.377	0.2021
358.711	0.2012
359.046	0.1998
359.38	0.1983
359.715	0.1981
360.049	0.1967
360.383	0.1964
360.717	0.1949
361.051	0.1929
361.385	0.1924
361.719	0.1899
362.053	0.1898
362.387	0.1868
362.72	0.185
363.054	0.1835
363.387	0.1819
363.721	0.1809
364.054	0.1789
364.387	0.1769
364.721	0.1756
365.054	0.174
365.387	0.1728
365.72	0.1707
366.053	0.1697
366.385	0.1679
366.718	0.1664
367.051	0.1655
367.383	0.1638
367.716	0.1627
368.048	0.1616
368.381	0.1601
368.713	0.1594
369.045	0.158
369.377	0.1567
369.709	0.1552
370.041	0.1543
370.373	0.1528
370.705	0.1505
371.037	0.1497
371.368	0.1481
371.7	0.1467
372.031	0.1456
372.363	0.1435
372.694	0.142
373.025	0.1395
373.356	0.1384
373.688	0.1358
374.019	0.1337
374.35	0.1326
374.68	0.1309
375.011	0.1288
375.342	0.1269
375.673	0.1251
376.003	0.1237
376.334	0.1218
376.664	0.1202
376.995	0.1187
377.325	0.1173
377.655	0.1169
377.985	0.1151
378.315	0.114
378.645	0.1133
378.975	0.1107
379.305	0.11
379.635	0.1093
379.964	0.1075
380.294	0.1067
380.623	0.1051
380.953	0.1045
381.282	0.1029
381.611	0.1013
381.941	0.1013
382.27	0.0992
382.599	0.0981
382.928	0.0965
383.257	0.0954
383.585	0.0939
383.914	0.0929
384.243	0.0915
384.571	0.0895
384.9	0.0878
385.228	0.0869
385.557	0.0855
385.885	0.084
386.213	0.0825
386.541	0.0808
386.869	0.0796
387.197	0.0784
387.525	0.0763
387.853	0.075
388.181	0.0741
388.508	0.0733
388.836	0.0722
389.164	0.0716
389.491	0.0701
389.818	0.0689
390.146	0.0678
390.473	0.0664
390.8	0.0659
391.127	0.0646
391.454	0.064
391.781	0.0628
392.108	0.0621
392.435	0.0607
392.761	0.0595
393.088	0.0592
393.415	0.0585
393.741	0.058
394.067	0.0575
394.394	0.0568
394.72	0.0558
395.046	0.0551
395.372	0.0541
395.698	0.053
396.024	0.0528
396.35	0.0518
396.676	0.0515
397.001	0.0511
397.327	0.0493
397.653	0.0488
397.978	0.0482
398.303	0.0472
398.629	0.0465
398.954	0.046
399.279	0.0457
399.604	0.0452
399.929	0.044
400.254	0.0437
400.579	0.0434
400.904	0.0426
401.229	0.042
401.553	0.0409
401.878	0.0408
402.202	0.0404
402.527	0.04
402.851	0.04
403.175	0.0395
403.5	0.0392
403.824	0.0391
404.148	0.0385
404.472	0.0385
404.796	0.0375
405.119	0.037
405.443	0.0372
405.767	0.0367
406.09	0.0362
406.414	0.0371
406.737	0.0366
407.061	0.0365
407.384	0.0368
407.707	0.0358
408.03	0.0364
408.353	0.0359
408.676	0.0352
408.999	0.0352
409.322	0.0359
409.645	0.0358
409.968	0.0351
410.29	0.0349
410.613	0.0351
410.935	0.0353
411.258	0.0353
411.58	0.0351
411.902	0.0353
412.224	0.0349
412.546	0.0346
412.868	0.0347
413.19	0.0352
413.512	0.0351
413.834	0.0352
414.156	0.0356
414.477	0.0346
414.799	0.035
415.121	0.0355
415.442	0.035
415.763	0.0352
416.085	0.0357
416.406	0.0353
416.727	0.0355
417.048	0.0353
417.369	0.0349
417.69	0.0349
418.011	0.0354
418.331	0.0359
418.652	0.0352
418.973	0.0359
419.293	0.0356
419.614	0.0357
419.934	0.0347
420.254	0.0358
420.574	0.035
420.895	0.0353
421.215	0.0352
421.535	0.0344
421.855	0.0355
422.174	0.0353
422.494	0.0352
422.814	0.0358
423.134	0.0365
423.453	0.0359
423.773	0.0357
424.092	0.0355
424.411	0.0351
424.731	0.036
425.05	0.0361
425.369	0.0359
425.688	0.0363
426.007	0.0364
426.326	0.0365
426.644	0.0375
426.963	0.0375
427.282	0.037
427.6	0.0366
427.919	0.037
428.237	0.037
428.556	0.0377
428.874	0.0367
429.192	0.0366
429.51	0.037
429.828	0.0375
430.146	0.0369
430.464	0.0368
430.782	0.0373
431.1	0.0375
431.418	0.0373
431.735	0.0368
432.053	0.0377
432.37	0.0377
432.688	0.0373
433.005	0.0376
433.322	0.0378
433.639	0.0373
433.957	0.0376
434.274	0.038
434.591	0.0374
434.907	0.0383
435.224	0.0373
435.541	0.038
435.858	0.0385
436.174	0.0375
436.491	0.0377
436.807	0.038
437.124	0.0379
437.44	0.0371
437.756	0.0374
438.072	0.0377
438.388	0.0385
438.704	0.0377
439.02	0.0382
439.336	0.0373
439.652	0.0371
439.968	0.0381
440.283	0.0373
440.599	0.0371
440.914	0.038
441.23	0.0372
441.545	0.0382
441.86	0.0372
442.175	0.0381
442.491	0.0376
442.806	0.0372
443.121	0.0377
443.435	0.0372
443.75	0.037
444.065	0.0373
444.38	0.0371
444.694	0.0374
445.009	0.037
445.323	0.0378
445.638	0.0369
445.952	0.0372
446.266	0.0368
446.58	0.0376
446.894	0.0371
447.208	0.0376
447.522	0.0373
447.836	0.036
448.15	0.036
448.464	0.036
448.777	0.0364
449.091	0.0356
449.404	0.0366
449.718	0.0372
450.031	0.0362
450.345	0.0359
450.658	0.0361
450.971	0.0358
451.284	0.0355
451.597	0.0361
451.91	0.0364
452.223	0.0351
452.535	0.0362
452.848	0.0356
453.161	0.0354
453.473	0.0357
453.786	0.036
454.098	0.0349
454.411	0.0351
454.723	0.0356
455.035	0.0348
455.347	0.0354
455.659	0.0357
455.971	0.0354
456.283	0.0356
456.595	0.035
456.907	0.0347
457.218	0.0349
457.53	0.0345
457.841	0.0338
458.153	0.0336
458.464	0.0337
458.776	0.0327
459.087	0.0328
459.398	0.0335
459.709	0.0328
460.02	0.033
460.331	0.0322
460.642	0.0325
460.953	0.0325
461.263	0.0324
461.574	0.0321
461.885	0.0323
462.195	0.0324
462.506	0.0321
462.816	0.0319
463.126	0.0311
463.437	0.0317
463.747	0.0305
464.057	0.0309
464.367	0.0315
464.677	0.0303
464.987	0.0301
465.296	0.0307
465.606	0.0296
465.916	0.0295
466.225	0.0297
466.535	0.0298
466.844	0.0294
467.154	0.0291
467.463	0.0288
467.772	0.0294
468.081	0.0288
468.39	0.0285
468.699	0.0281
469.008	0.0291
469.317	0.0285
469.626	0.0283
469.935	0.0279
470.243	0.0279
470.552	0.0287
470.86	0.0279
471.169	0.0276
471.477	0.0274
471.785	0.0274
472.093	0.0272
472.402	0.0271
472.71	0.0264
473.018	0.0269
473.326	0.0262
473.633	0.0261
473.941	0.0261
474.249	0.0256
474.556	0.0251
474.864	0.0252
475.171	0.0245
475.479	0.0252
475.786	0.0253
476.094	0.0252
476.401	0.025
476.708	0.0246
477.015	0.0254
477.322	0.0238
477.629	0.0248
477.936	0.0234
478.242	0.0229
478.549	0.0237
478.856	0.0226
479.162	0.0229
479.469	0.0234
479.775	0.0232
480.081	0.0221
480.388	0.0226
480.694	0.0219
481	0.0221
481.306	0.0218
481.612	0.0218
481.918	0.0209
482.224	0.0219
482.53	0.0208
482.835	0.0207
483.141	0.0198
483.446	0.0199
483.752	0.0203
484.057	0.0191
484.363	0.0194
484.668	0.0191
484.973	0.019
485.278	0.0185
485.583	0.0187
485.888	0.018
486.193	0.0179
486.498	0.0179
486.803	0.0187
487.107	0.0178
487.412	0.0176
487.717	0.0177
488.021	0.0171
488.325	0.0174
488.63	0.0167
488.934	0.0171
489.238	0.0175
489.542	0.0172
489.846	0.0155
490.15	0.0171
490.454	0.016
490.758	0.0159
491.062	0.0157
491.366	0.0157
491.669	0.0155
491.973	0.0153
492.276	0.0161
492.58	0.0144
492.883	0.0153
493.186	0.0153
493.489	0.0149
493.792	0.0153
494.096	0.0143
494.399	0.0148
494.701	0.0147
495.004	0.0138
495.307	0.0127
495.61	0.0135
495.912	0.0127
496.215	0.0124
496.517	0.0136
496.82	0.0125
497.122	0.013
497.424	0.0128
497.727	0.0129
498.029	0.0125
498.331	0.0133
498.633	0.0127
498.935	0.0118
499.237	0.012
499.538	0.0125
499.84	0.012
500.142	0.0129
500.443	0.0117
500.745	0.0115
501.046	0.0116
501.348	0.0111
501.649	0.0116
501.95	0.011
502.251	0.0112
502.552	0.0099
502.853	0.0098
503.154	0.0101
503.455	0.0095
503.756	0.0102
504.057	0.01
504.357	0.0096
504.658	0.0101
504.958	0.0099
505.259	0.0106
505.559	0.0096
505.859	0.0092
506.16	0.0087
506.46	0.0089
506.76	0.0095
507.06	0.0083
507.36	0.009
507.66	0.0101
507.96	0.0092
508.259	0.0078
508.559	0.0077
508.859	0.0085
509.158	0.0086
509.457	0.0081
509.757	0.0091
510.056	0.0083
510.355	0.0065
510.655	0.006
510.954	0.0075
511.253	0.0071
511.552	0.0076
511.851	0.0074
512.149	0.0072
512.448	0.0067
512.747	0.0076
513.045	0.0054
513.344	0.0076
513.642	0.0075
513.941	0.007
514.239	0.0067
514.537	0.0067
514.836	0.0063
515.134	0.0064
515.432	0.0069
515.73	0.0066
516.028	0.0059
516.326	0.0068
516.623	0.0065
516.921	0.0052
517.219	0.0066
517.516	0.0058
517.814	0.0054
518.111	0.0068
518.409	0.0082
518.706	0.0061
519.003	0.0062
519.3	0.0046
519.597	0.0053
519.894	0.0067
520.191	0.007
520.488	0.0065
520.785	0.0055
521.082	0.0059
521.378	0.0061
521.675	0.0039
521.971	0.0047
522.268	0.0053
522.564	0.0052
522.861	0.006
523.157	0.0049
523.453	0.0051
523.749	0.0057
524.045	0.0067
524.341	0.0053
524.637	0.0045
524.933	0.0049
525.229	0.0051
525.524	0.0045
525.82	0.0055
526.115	0.0035
526.411	0.0039
526.706	0.0056
527.002	0.0045
527.297	0.0039
527.592	0.0064
527.887	0.0063
528.182	0.0053
528.477	0.006
528.772	0.004
529.067	0.0053
529.362	0.0053
529.657	0.0046
529.951	0.0036
530.246	0.0044
530.54	0.003
530.835	0.003
531.129	0.0029
531.423	0.0037
531.718	0.0042
532.012	0.0038
532.306	0.0031
532.6	0.0037
532.894	0.003
533.188	0.004
533.482	0.0026
533.775	0.0043
534.069	0.0025
534.363	0.0023
534.656	0.0029
534.95	0.0028
535.243	0.0034
535.536	0.003
535.83	0.0036
536.123	0.0026
536.416	0.0032
536.709	0.0032
537.002	0.0041
537.295	0.0033
537.588	0.0032
537.881	0.003
538.173	0.0027
538.466	0.0026
538.759	0.0024
539.051	0.0017
539.344	0.0026
539.636	0.0026
539.928	0.0028
540.22	0.0041
540.513	0.0033
540.805	0.004
541.097	0.0035
541.389	0.003
541.681	0.0018
541.972	0.003
542.264	0.0018
542.556	0.003
542.847	0.0024
543.139	0.0033
543.431	0.0037
543.722	0.0028
544.013	0.0039
544.305	0.0039
544.596	0.0035
544.887	0.003
545.178	0.0034
545.469	0.0021
545.76	0.0026
546.051	0.0028
546.342	0.003
546.632	0.002
546.923	0.0033
547.214	0.0031
547.504	0.0028
547.795	0.003
548.085	0.0029
548.375	0.0025
548.666	0.0032
548.956	0.003
549.246	0.0027
549.536	0.0013
549.826	0.0035
550.116	0.0042
550.406	0.0036
550.695	0.0029
550.985	0.0036
551.275	0.0042
551.564	0.003
551.854	0.0035
552.143	0.0032
552.433	0.0039
552.722	0.003
553.011	0.0034
553.3	0.004
553.589	0.0032
553.879	0.0034
554.167	0.0029
554.456	0.0029
554.745	0.0024
555.034	0.002
555.323	0.0016
555.611	0.0019
555.9	0.0031
556.188	0.0034
556.477	0.0024
556.765	0.0014
557.053	0.0023
557.342	0.0021
557.63	0.0031
557.918	0.0026
558.206	0.0024
558.494	0.0041
558.782	0.0036
559.069	0.003
559.357	0.0039
559.645	0.0024
559.932	0.0032
560.22	0.0038
560.507	0.0034
560.795	0.0027
561.082	0.0034
561.37	0.0023
561.657	0.003
561.944	0.0034
562.231	0.0027
562.518	0.0024
562.805	0.0038
563.092	0.0039
563.379	0.0036
563.665	0.0033
563.952	0.0043
564.239	0.004
564.525	0.0049
564.811	0.0039
565.098	0.0039
565.384	0.0037
565.67	0.0038
565.957	0.0038
566.243	0.003
566.529	0.0041
566.815	0.0052
567.101	0.0032
567.387	0.0036
567.672	0.0028
567.958	0.0034
568.244	0.0041
568.529	0.003
568.815	0.0031
569.1	0.0028
569.386	0.0027
569.671	0.0026
569.956	0.0024
570.242	0.0025
570.527	0.0031
570.812	0.0037
571.097	0.0037
571.382	0.0023
571.666	0.0028
571.951	0.002
572.236	0.003
572.521	0.0024
572.805	0.0033
573.09	0.0031
573.374	0.0021
573.659	0.0018
573.943	0.0031
574.227	0.0027
574.511	0.0028
574.795	0.0026
575.079	0.0017
575.363	0.0021
575.647	0.0022
575.931	0.0032
576.215	0.0034
576.499	0.0023
576.782	0.0023
577.066	0.0024
577.349	0.0024
577.633	0.0036
577.916	0.0022
578.2	0.0033
578.483	0.0031
578.766	0.0021
579.049	0.003
579.332	0.0034
579.615	0.0023
579.898	0.0033
580.181	0.0026
580.464	0.0028
580.746	0.0019
581.029	0.0028
581.312	0.0018
581.594	0.0015
581.877	0.0026
582.159	0.0031
582.441	0.0027
582.724	0.0022
583.006	0.002
583.288	0.0013
583.57	0.0019
583.852	0.0024
584.134	0.0019
584.416	0.0021
584.697	0.0024
584.979	0.0026
585.261	0.0028
585.542	0.002
585.824	0.0026
586.105	0.0028
586.387	0.0023
586.668	0.0019
586.949	0.0023
587.231	0.0019
587.512	0.0025
587.793	0.0027
588.074	0.0027
588.355	0.0025
588.636	0.0035
588.916	0.0033
589.197	0.0038
589.478	0.0032
589.758	0.0028
590.039	0.0037
590.319	0.003
590.6	0.0029
590.88	0.0027
591.16	0.0033
591.441	0.0038
591.721	0.0029
592.001	0.0027
592.281	0.0025
592.561	0.0038
592.841	0.0033
593.12	0.0025
593.4	0.0021
593.68	0.0026
593.959	0.0023
594.239	0.0037
594.518	0.0028
594.798	0.0027
595.077	0.0031
595.356	0.0024
595.636	0.0022
595.915	0.0031
596.194	0.0031
596.473	0.0034
596.752	0.0032
597.031	0.002
597.31	0.0013
597.588	0.0022
597.867	0.0016
598.146	0.0015
598.424	0.0023
598.703	0.002
598.981	0.0023
599.259	0.0026
599.538	0.0033
599.816	0.0026
600.094	0.0024
600.372	0.0024
600.65	0.0029
600.928	0.0033
601.206	0.003
601.484	0.0029
601.762	0.0033
602.04	0.0026
602.317	0.003
602.595	0.003
602.872	0.0035
603.15	0.0023
603.427	0.0022
603.704	0.0018
603.982	0.0018
604.259	0.0013
604.536	0.002
604.813	0.0028
605.09	0.0028
605.367	0.0015
605.644	0.0014
605.921	0.0025
606.197	0.0022
606.474	0.0028
606.751	0.003
607.027	0.0026
607.304	0.0021
607.58	0.0017
607.856	0.0014
608.133	0.0033
608.409	0.0033
608.685	0.0026
608.961	0.003
609.237	0.0027
609.513	0.0029
609.789	0.0036
610.065	0.0019
610.341	0.0024
610.616	0.0029
610.892	0.0025
611.167	0.0027
611.443	0.0018
611.718	0.0008
611.994	0.0019
612.269	0.0025
612.544	0.0024
612.819	0.0022
613.095	0.0025
613.37	0.0024
613.645	0.0017
613.919	0.0017
614.194	0.0028
614.469	0.0019
614.744	0.0012
615.019	0.0016
615.293	0.0008
615.568	0.0014
615.842	0.0013
616.116	0.0011
616.391	0.0011
616.665	0.0025
616.939	0.0019
617.213	0.0013
617.488	0.0015
617.762	0.0024
618.035	0.0018
618.309	0.0016
618.583	0.0024
618.857	0.0018
619.131	0.0025
619.404	0.0016
619.678	0.0025
619.951	0.0012
620.225	0.0011
620.498	0.002
620.771	0.0017
621.045	0.0029
621.318	0.002
621.591	0.0021
621.864	0.0011
622.137	0.0004
622.41	0.0015
622.683	0.0009
622.956	0.0017
623.228	0.0027
623.501	0.0025
623.774	0.0033
624.046	0.0027
624.319	0.0032
624.591	0.0015
624.863	0.002
625.136	0.0021
625.408	0.003
625.68	0.0024
625.952	0.003
626.224	0.0028
626.496	0.0024
626.768	0.0013
627.04	0.003
627.311	0.0023
627.583	0.0026
627.855	0.0027
628.126	0.0026
628.398	0.0031
628.669	0.0029
628.941	0.0026
629.212	0.0012
629.483	0.002
629.755	0.0018
630.026	0.002
630.297	0.0017
630.568	0.0014
630.839	0.0008
631.11	0.0007
631.38	0.0001
631.651	0.0007
631.922	0.0009
632.192	-0.0001
632.463	0.0001
632.733	0.0012
633.004	0.0015
633.274	-0.0004
633.545	0.002
633.815	0.0028
634.085	0.0028
634.355	0.001
634.625	0.0026
634.895	0.0018
635.165	0.0009
635.435	0.0016
635.705	0.0015
635.974	0.0004
636.244	0.0011
636.514	0.0019
636.783	0.0012
637.053	0.0023
637.322	0.0022
637.591	0.0026
637.861	0.0023
638.13	0.0024
638.399	0.0021
638.668	0.0031
638.937	0.0004
639.206	0.0018
639.475	0.0023
639.744	0.0026
640.013	0.0033
640.281	0.0033
640.55	0.0037
640.819	0.0032
641.087	0.0039
641.356	0.0025
641.624	0.003
641.892	0.0031
642.161	0.0031
642.429	0.0026
642.697	0.0027
642.965	0.0036
643.233	0.004
643.501	0.0023
643.769	0.0019
644.037	0.0027
644.305	0.0012
644.572	0.0007
644.84	0.0019
645.108	0.0021
645.375	0.0009
645.643	0.0016
645.91	0.001
646.177	0.003
646.445	0.0046
646.712	0.0046
646.979	0.0043
647.246	0.0046
647.513	0.0042
647.78	0.0045
648.047	0.0052
648.314	0.0034
648.58	0.0034
648.847	0.0025
649.114	0.0018
649.38	0.0016
649.647	0.002
649.913	0.001
650.18	0.0017
650.446	0.0013
650.712	0.0034
650.978	0.0035
651.245	0.0033
651.511	0.0036
651.777	0.0021
652.043	0.0027
652.309	0.0032
652.574	0.0037
652.84	0.0018
653.106	0.0011
653.371	0.0008
653.637	0.0012
653.903	0.0021
654.168	0.0015
654.433	0.0029
654.699	0.0034
654.964	0.0044
655.229	0.0032
655.494	0.0031
655.759	0.0006
656.024	0.0005
656.289	-0
656.554	-0
656.819	0.0003
657.084	0.0027
657.349	0.0031
657.613	0.0038
657.878	0.0035
658.142	0.0038
658.407	0.0033
658.671	0.003
658.936	0.0021
659.2	0.0019
659.464	0.0018
659.728	0.0022
659.992	0.0024
660.256	0.0017
660.52	0.0012
660.784	0.001
661.048	0.0009
661.312	0.0009
661.575	0.0007
661.839	-0.0003
662.103	-0.0009
662.366	-0.0007
662.63	0.0004
662.893	0.0011
663.156	-0
663.42	-0.0003
663.683	0.0004
663.946	0.0015
664.209	0.0031
664.472	0.0025
664.735	0.0023
664.998	0.002
665.261	0.0013
665.524	0.0015
665.786	0.0016
666.049	0.0012
666.312	0.0009
666.574	0.0018
666.837	0.0008
667.099	0.0004
667.361	-0.0002
667.624	-0.0004
667.886	-0.0006
668.148	0.0011
668.41	0.0013
668.672	0.0014
668.934	0.0014
669.196	0.0014
669.458	0.0021
669.72	0.0019
669.982	0.0022
670.243	0.0032
670.505	0.0025
670.766	0.0023
671.028	0.0018
671.289	0.0019
671.551	0.0015
671.812	-0
672.073	0.001
672.334	0.0005
672.596	0.0009
672.857	-0.0001
673.118	0.0011
673.379	0.0006
673.639	0.0003
673.9	0.0002
674.161	-0.0009
674.422	-0.0012
674.682	-0.0006
674.943	-0.0012
675.203	0.0005
675.464	0.001
675.724	0.0003
675.985	0.0018
676.245	0.0028
676.505	0.0033
676.765	0.0033
677.025	0.0032
677.285	0.0027
677.545	0.0033
677.805	0.0035
678.065	0.0034
678.325	0.0036
678.585	0.0038
678.844	0.0028
679.104	0.0027
679.363	0.0029
679.623	0.0032
679.882	0.0036
680.142	0.0039
680.401	0.0043
680.66	0.0046
680.919	0.0037
681.178	0.0047
681.437	0.0052
681.696	0.0037
681.955	0.0051
682.214	0.0047
682.473	0.0047
682.732	0.0024
682.99	0.003
683.249	0.0034
683.508	0.0036
683.766	0.0032
684.024	0.0029
684.283	0.0036
684.541	0.0036
684.799	0.0035
685.058	0.0029
685.316	0.0029
685.574	0.0033
685.832	0.004
686.09	0.0043
686.348	0.0048
686.606	0.0038
686.863	0.0049
687.121	0.0052
687.379	0.0043
687.636	0.0044
687.894	0.0052
688.151	0.0055
688.409	0.0052
688.666	0.005
688.923	0.0054
689.181	0.0049
689.438	0.0035
689.695	0.0031
689.952	0.0015
690.209	0.0022
690.466	0.0012
690.723	0.0034
690.979	0.0027
691.236	0.0019
691.493	0.0022
691.75	0.0034
692.006	0.0038
692.263	0.0039
692.519	0.004
692.775	0.0027
693.032	0.0021
693.288	0.0034
693.544	0.0028
693.8	0.0035
694.056	0.0026
694.313	0.0029
694.568	0.0024
694.824	0.0024
695.08	0.0042
695.336	0.0047
695.592	0.0026
695.847	0.0038
696.103	0.0042
696.359	0.0041
696.614	0.0036
696.869	0.0027
697.125	0.0005
697.38	0.0008
697.635	0.0006
697.891	0.0012
698.146	0.0014
698.401	0.0026
698.656	0.002
698.911	0.0034
699.166	0.0016
699.42	0.0017
699.675	0.0015
699.93	0.0003
700.185	0.0017
700.439	0.0023
700.694	0.0018
700.948	0.0019
701.203	0.0021
701.457	0.0026
701.711	0.0016
701.965	0.0004
702.22	0
702.474	0.0017
702.728	0.0002
702.982	-0.0004
703.236	0.0009
703.49	0.0011
703.743	0.0008
703.997	0.0005
704.251	0.0012
704.504	0.0019
704.758	0.0017
705.012	0.0008
705.265	0.0004
705.518	0.0007
705.772	0.0003
706.025	0.0001
706.278	0.0007
706.531	0
706.785	-0.0009
707.038	-0.0001
707.291	-0.0007
707.543	-0.0002
707.796	0.0001
708.049	-0.0002
708.302	-0.0011
708.555	-0.0004
708.807	-0.0003
709.06	-0.0006
709.312	-0.0021
709.565	-0.0023
709.817	-0.0024
710.069	-0.0016
710.322	-0.0008
710.574	-0.0006
710.826	-0.0008
711.078	0.0004
711.33	0.0001
711.582	0.0003
711.834	0.0019
712.086	0.0014
712.338	0.002
712.59	0.0018
712.841	0.0017
713.093	0.0012
713.344	0.0012
713.596	0.002
713.847	0.0017
714.099	0.0021
714.35	0.0018
714.601	0.0033
714.853	0.0041
715.104	0.0028
715.355	0.0017
715.606	0.0021
715.857	0.0026
716.108	0.0034
716.359	0.0034
716.609	0.0029
716.86	0.0022
717.111	0.0012
717.361	0.0002
717.612	-0.0001
717.863	0.0007
718.113	0.0007
718.363	0.0004
718.614	0.0013
718.864	0.0015
719.114	0.0017
719.364	0.0016
719.614	0.0005
719.865	-0.0007
720.114	0.0011
720.364	0.0014
720.614	0.0023
720.864	0.0028
721.114	0.0025
721.364	0.0035
721.613	0.0035
721.863	0.0039
722.112	0.0033
722.362	0.0038
722.611	0.003
722.86	0.0023
723.11	0.0019
723.359	0.0022
723.608	0.0031
723.857	0.0043
724.106	0.0055
724.355	0.0055
724.604	0.0063
724.853	0.0051
725.102	0.0041
725.351	0.0031
725.599	0.0032
725.848	0.0026
726.097	0.0031
726.345	0.0026
726.594	0.0023
726.842	0.0023
727.09	0.003
727.339	0.0029
727.587	0.0022
727.835	0.0015
728.083	0.0007
728.331	-0.0001
728.579	-0.0007
728.827	0.0003
729.075	0.0007
729.323	0.0013
729.571	0.0015
729.818	0.002
730.066	0.0018
730.314	0.0029
730.561	0.0005
730.809	0.0004
731.056	0
731.303	-0.0007
731.551	0.0002
731.798	0.001
732.045	0.0003
732.292	0.001
732.539	0.0013
732.786	0.0015
733.033	0.0015
733.28	0.002
733.527	0.0037
733.774	0.0027
734.021	0.0035
734.267	0.0041
734.514	0.004
734.76	0.0041
735.007	0.0064
735.253	0.0062
735.5	0.0061
735.746	0.0061
735.992	0.0056
736.238	0.0058
736.485	0.006
736.731	0.0064
736.977	0.0052
737.223	0.0043
737.469	0.0055
737.715	0.0056
737.96	0.0068
738.206	0.0063
738.452	0.0084
738.697	0.0081
738.943	0.0069
739.189	0.0046
739.434	0.0016
739.679	0.0018
739.925	0.0021
740.17	0.0016
740.415	0.0012
740.66	0.0024
740.906	0.0029
741.151	0.0022
741.396	0.0028
741.641	0.0049
741.886	0.0048
742.13	0.0052
742.375	0.0061
742.62	0.007
742.865	0.0052
743.109	0.005
743.354	0.0042
743.598	0.0041
743.843	0.0047
744.087	0.0044
744.331	0.0045
744.576	0.0039
744.82	0.004
745.064	0.0034
745.308	0.0029
745.552	0.0033
745.796	0.0039
746.04	0.0032
746.284	0.0019
746.528	0.0002
746.771	0.0012
747.015	0.001
747.259	0.0012
747.502	0.0005
747.746	0.0023
747.989	0.0028
748.233	0.0036
748.476	0.0034
748.719	0.004
748.963	0.004
749.206	0.0035
749.449	0.0045
749.692	0.0029
749.935	0.0039
750.178	0.0037
750.421	0.0039
750.664	0.0045
750.906	0.0045
751.149	0.0032
751.392	0.0035
751.635	0.0018
751.877	0.0009
752.12	0.0003
752.362	0.0017
752.604	0.0007
752.847	0.0021
753.089	0.0022
753.331	0.0029
753.573	0.0024
753.816	0.0022
754.058	0.0028
754.3	0.0036
754.542	0.0043
754.783	0.0033
755.025	0.0036
755.267	0.002
755.509	0.0015
755.75	0.0007
755.992	0.0016
756.234	0.0012
756.475	-0.0005
756.716	-0.0002
756.958	-0.0001
757.199	-0.0002
757.44	0.0014
757.682	0.0011
757.923	0.0002
758.164	0.0007
758.405	0.0001
758.646	0.0009
758.887	0.0011
759.128	0.001
759.369	0.0005
759.609	-0.0002
759.85	-0.0004
760.091	0.0006
760.331	-0.0001
760.572	-0.0004
760.812	-0.0006
761.053	-0.0009
761.293	-0
761.533	0.001
761.774	0.0006
762.014	0.0014
762.254	0.0008
762.494	0.0001
762.734	-0.0006
762.974	-0.0005
763.214	-0.001
763.454	-0.0011
763.694	-0.0004
763.933	-0.0013
764.173	0.0008
764.413	-0.0001
764.652	0.0006
764.892	0.0007
765.131	0.0012
765.371	0.0012
765.61	0.003
765.849	0.0018
766.089	0.0021
766.328	0.0032
766.567	0.0032
766.806	0.0035
767.045	0.0034
767.284	0.0029
767.523	0.0044
767.762	0.0042
768.001	0.0035
768.239	0.0026
768.478	0.0021
768.717	0.0024
768.955	0.003
769.194	0.0022
769.432	0.0024
769.671	0.0029
769.909	0.0025
770.148	0.0027
770.386	0.0034
770.624	0.0027
770.862	0.0029
771.1	0.0019
771.338	0.0022
771.576	0.0016
771.814	0.0017
772.052	0.0022
772.29	0.0026
772.528	0.0032
772.765	0.0025
773.003	0.0035
773.24	0.003
773.478	0.0026
773.716	0.0041
773.953	0.0041
774.19	0.0047
774.428	0.0043
774.665	0.0048
774.902	0.0042
775.139	0.0028
775.376	0.0029
775.613	0.002
775.85	0.003
776.087	0.0025
776.324	0.0033
776.561	0.0028
776.798	0.0042
777.034	0.0052
777.271	0.0061
777.508	0.007
777.744	0.0063
777.981	0.0058
778.217	0.0056
778.454	0.0051
778.69	0.0041
778.926	0.0045
779.162	0.0045
779.399	0.0042
779.635	0.004
779.871	0.0031
780.107	0.0046
780.343	0.0051
780.579	0.0056
780.814	0.005
781.05	0.0049
781.286	0.0044
781.522	0.0043
781.757	0.0055
781.993	0.0059
782.228	0.0055
782.464	0.0057
782.699	0.0045
782.934	0.0031
783.17	0.0039
783.405	0.0036
783.64	0.0024
783.875	0.0031
784.11	0.0038
784.345	0.0037
784.58	0.0031
784.815	0.0035
785.05	0.0035
785.285	0.0021
785.52	0.0022
785.754	0.0024
785.989	0.0018
786.223	0.0013
786.458	0.0012
786.692	0.0009
786.927	0.0002
787.161	0.0008
787.396	0.001
787.63	-0
787.864	-0.0001
788.098	-0.0001
788.332	0.0007
788.566	0.0005
788.8	0.0004
789.034	0.0012
789.268	0.0017
789.502	0.0016
789.736	0.0024
789.969	0.0033
790.203	0.0033
790.437	0.0034
790.67	0.0024
790.904	0.0035
791.137	0.0013
791.37	0.0009
791.604	0.0004
791.837	0.0011
792.07	0.0007
792.303	0.0015
792.537	0.0008
792.77	0.001
793.003	-0.0001
793.236	-0.001
793.469	-0.0006
793.701	0
793.934	-0.0004
794.167	-0.0002
794.4	0.0001
794.632	0
794.865	-0.0004
795.097	0.0007
795.33	0.0018
795.562	0.0015
795.795	0.0011
796.027	0.0013
796.259	0.0013
796.491	0.0005
796.724	0.0001
796.956	0.0013
797.188	0.0021
797.42	0.0013
797.652	0.0005
797.883	-0.0002
798.115	-0.0003
798.347	-0.0002
798.579	-0.0008
798.81	-0.0016
799.042	-0.0013
799.274	-0.002
799.505	-0.0018
799.737	-0.002
799.968	-0.0012
800.199	-0.0001
800.431	-0.0009
800.662	0.0006
800.893	0.0005
801.124	0.0009
801.355	0.0014
801.586	0.0012
801.817	0.0015
802.048	0.0012
802.279	0.0016
802.51	0.002
802.741	-0.0002
802.971	0.0002
803.202	-0.0005
803.433	-0.0004
803.663	-0.0001
803.894	0
804.124	0.0003
804.354	0.0007
804.585	0.0005
804.815	0.0002
805.045	0.0003
805.275	-0.0014
805.506	-0.0439
805.736	0.0202
805.966	-0.0209
806.196	0.001
